Wavelength_(nm), CT_Absorbance_(a.u.)
340.712,0
341.091,0
341.47,0
341.849,0
342.229,-0.03
342.608,0.98
342.987,0
343.366,0.2
343.745,0.06
344.124,0
344.503,-0.56
344.881,-0.25
345.26,0
345.639,-0.19
346.018,0.42
346.396,-0.1
346.775,0
347.154,-0.35
347.532,0.33
347.911,-0.43
348.289,0
348.668,-0.75
349.046,0
349.425,-0.09
349.803,0.39
350.181,0.23
350.56,0.36
350.938,0.35
351.316,0.29
351.694,0.31
352.072,0.37
352.45,0.31
352.828,0.48
353.206,0.35
353.584,0.48
353.962,0.38
354.34,0.44
354.718,0.37
355.095,0.43
355.473,0.38
355.851,0.5
356.229,0.41
356.606,0.38
356.984,0.38
357.361,0.59
357.739,0.44
358.116,0.27
358.494,0.4
358.871,0.41
359.248,0.41
359.626,0.44
360.003,0.4
360.38,0.54
360.757,0.41
361.134,0.43
361.511,0.56
361.888,0.43
362.265,0.55
362.642,0.35
363.019,0.66
363.396,0.43
363.773,0.52
364.15,0.5
364.527,0.52
364.903,0.48
365.28,0.41
365.657,0.53
366.033,0.38
366.41,0.49
366.786,0.71
367.163,0.43
367.539,0.4
367.915,0.38
368.292,0.54
368.668,0.51
369.044,0.36
369.421,0.41
369.797,0.36
370.173,0.31
370.549,0
370.925,0.45
371.301,0.43
371.677,0.52
372.053,0.46
372.429,0.37
372.805,0.48
373.181,0.44
373.556,0.51
373.932,0.44
374.308,0.6
374.683,0.55
375.059,0.4
375.435,0.48
375.81,0.43
376.186,0.6
376.561,0.53
376.936,0.67
377.312,0.83
377.687,0.65
378.062,0.84
378.438,0.84
378.813,0.85
379.188,0.82
379.563,0.79
379.938,0.97
380.313,0.96
380.688,1.07
381.063,1
381.438,1.07
381.813,1.28
382.188,1.1
382.563,1.25
382.937,1.41
383.312,1.32
383.687,1.4
384.061,1.37
384.436,1.46
384.81,1.44
385.185,1.67
385.559,1.54
385.934,1.49
386.308,1.66
386.682,1.73
387.057,1.63
387.431,1.68
387.805,1.71
388.179,1.78
388.553,1.89
388.927,1.77
389.301,2
389.675,1.77
390.049,2.19
390.423,1.95
390.797,1.96
391.171,1.96
391.545,2.14
391.919,2.16
392.292,2.16
392.666,2.18
393.04,2.29
393.413,2.22
393.787,2.06
394.16,2.24
394.534,2.27
394.907,2.3
395.28,2.46
395.654,2.38
396.027,2.38
396.4,2.45
396.773,2.42
397.147,2.35
397.52,2.47
397.893,2.54
398.266,2.74
398.639,2.47
399.012,2.51
399.385,2.4
399.757,2.63
400.13,2.48
400.503,2.5
400.876,2.38
401.248,2.35
401.621,2.57
401.994,2.49
402.366,2.39
402.739,2.51
403.111,2.57
403.484,2.53
403.856,2.64
404.229,2.48
404.601,2.55
404.973,2.43
405.345,2.7
405.718,2.55
406.09,2.5
406.462,2.72
406.834,2.68
407.206,2.59
407.578,2.62
407.95,2.55
408.322,2.51
408.693,2.48
409.065,2.49
409.437,2.62
409.809,2.54
410.18,2.51
410.552,2.42
410.924,2.51
411.295,2.55
411.667,2.51
412.038,2.55
412.41,2.64
412.781,2.6
413.152,2.62
413.524,2.77
413.895,2.64
414.266,2.69
414.637,2.65
415.008,2.86
415.38,2.7
415.751,2.7
416.122,2.85
416.493,2.59
416.863,2.66
417.234,2.69
417.605,3.02
417.976,2.67
418.347,2.65
418.717,2.72
419.088,2.56
419.459,2.92
419.829,2.86
420.2,2.9
420.57,2.72
420.941,2.86
421.311,2.88
421.682,2.78
422.052,2.67
422.422,2.76
422.792,2.69
423.163,2.61
423.533,2.81
423.903,2.72
424.273,2.77
424.643,2.56
425.013,2.68
425.383,2.58
425.753,2.58
426.123,2.69
426.492,2.45
426.862,2.6
427.232,2.95
427.602,2.54
427.971,2.81
428.341,2.69
428.71,2.49
429.08,2.64
429.449,2.57
429.819,2.5
430.188,2.44
430.557,2.42
430.927,2.34
431.296,2.43
431.665,2.61
432.034,2.49
432.403,2.32
432.772,2.32
433.142,2.33
433.51,2.34
433.879,2.25
434.248,2.35
434.617,2.18
434.986,2.19
435.355,2.19
435.724,2.08
436.092,1.89
436.461,2.13
436.829,2.02
437.198,1.94
437.567,1.87
437.935,1.92
438.303,2.01
438.672,1.88
439.04,2.01
439.408,1.92
439.777,1.94
440.145,1.94
440.513,1.97
440.881,1.95
441.249,1.93
441.617,1.81
441.985,1.97
442.353,1.95
442.721,1.96
443.089,1.86
443.457,1.94
443.825,2.02
444.192,1.96
444.56,1.87
444.928,1.93
445.295,1.88
445.663,1.88
446.03,1.82
446.398,2.02
446.765,1.85
447.133,2.14
447.5,2.05
447.867,2.06
448.235,2.15
448.602,1.9
448.969,1.87
449.336,2.03
449.703,1.86
450.07,1.79
450.437,1.84
450.804,1.91
451.171,1.89
451.538,1.93
451.905,1.7
452.271,1.84
452.638,1.94
453.005,2.07
453.372,1.96
453.738,1.94
454.105,1.84
454.471,1.87
454.838,1.83
455.204,1.85
455.57,1.97
455.937,1.96
456.303,1.96
456.669,1.98
457.036,2.01
457.402,1.86
457.768,1.89
458.134,1.91
458.5,2.06
458.866,1.94
459.232,1.82
459.598,1.89
459.964,1.94
460.329,1.97
460.695,2.38
461.061,2.32
461.427,1.95
461.792,2
462.158,1.87
462.523,2.18
462.889,2.05
463.254,1.92
463.62,2.02
463.985,1.87
464.35,1.95
464.716,1.99
465.081,1.84
465.446,2.13
465.811,1.89
466.176,1.86
466.541,2.04
466.906,1.9
467.271,1.82
467.636,1.89
468.001,2.2
468.366,2.19
468.731,1.99
469.096,2.1
469.46,1.82
469.825,1.95
470.19,1.95
470.554,2.07
470.919,2
471.283,1.9
471.648,2.41
472.012,1.95
472.376,2.11
472.741,1.96
473.105,2.21
473.469,2.05
473.833,2
474.197,2.02
474.561,1.98
474.925,2.08
475.289,2.05
475.653,2.05
476.017,1.93
476.381,2.17
476.745,2.13
477.109,2.12
477.472,2.02
477.836,2.03
478.2,1.87
478.563,1.95
478.927,2.09
479.29,2.22
479.654,2.14
480.017,2.03
480.381,2.08
480.744,1.95
481.107,2.04
481.471,2.06
481.834,2.15
482.197,1.98
482.56,2.25
482.923,2.15
483.286,2.2
483.649,2.03
484.012,2.34
484.375,2.42
484.738,2.09
485.1,2.1
485.463,2.17
485.826,2.2
486.188,2.18
486.551,2.39
486.914,2.33
487.276,2.5
487.639,2.47
488.001,2.1
488.363,2.07
488.726,2.39
489.088,2.31
489.45,2.2
489.812,2.3
490.175,2.07
490.537,2.22
490.899,2.19
491.261,2.32
491.623,2.25
491.985,2.3
492.347,2.33
492.708,2.28
493.07,2.34
493.432,2.15
493.794,2.35
494.155,2.46
494.517,2.38
494.879,2.39
495.24,2.38
495.602,2.3
495.963,2.93
496.324,2.21
496.686,2.19
497.047,2.25
497.408,2.34
497.769,2.31
498.131,2.18
498.492,2.3
498.853,2.32
499.214,2.27
499.575,2.49
499.936,2.28
500.297,2.42
500.658,2.25
501.018,2.25
501.379,2.16
501.74,2.33
502.1,2.27
502.461,2.56
502.822,2.32
503.182,2.32
503.543,2.33
503.903,2.35
504.263,2.36
504.624,2.3
504.984,2.22
505.344,2.48
505.705,2.43
506.065,2.52
506.425,2.29
506.785,2.28
507.145,2.44
507.505,2.51
507.865,2.57
508.225,2.33
508.585,2.48
508.944,2.53
509.304,2.42
509.664,2.35
510.023,2.4
510.383,2.45
510.743,2.44
511.102,2.55
511.462,2.62
511.821,2.42
512.18,2.46
512.54,2.46
512.899,2.44
513.258,2.47
513.618,2.7
513.977,2.49
514.336,2.33
514.695,2.59
515.054,2.54
515.413,2.49
515.772,2.38
516.131,2.41
516.49,2.58
516.848,2.57
517.207,2.61
517.566,2.63
517.924,2.47
518.283,2.64
518.642,2.68
519,2.46
519.359,2.59
519.717,2.48
520.075,2.49
520.434,2.54
520.792,2.55
521.15,2.76
521.508,2.52
521.867,2.56
522.225,2.74
522.583,2.49
522.941,2.48
523.299,2.61
523.657,2.66
524.014,2.52
524.372,2.56
524.73,2.48
525.088,2.66
525.445,2.68
525.803,2.54
526.161,2.74
526.518,2.59
526.876,2.7
527.233,2.5
527.591,2.47
527.948,2.65
528.305,2.6
528.662,2.63
529.02,2.65
529.377,2.6
529.734,2.6
530.091,2.63
530.448,2.54
530.805,2.58
531.162,2.57
531.519,2.66
531.876,2.71
532.233,2.56
532.589,2.57
532.946,2.54
533.303,2.64
533.659,2.58
534.016,2.47
534.372,2.69
534.729,2.51
535.085,2.73
535.442,2.52
535.798,2.48
536.154,2.39
536.511,2.54
536.867,2.58
537.223,2.5
537.579,2.53
537.935,2.6
538.291,2.99
538.647,2.54
539.003,2.59
539.359,2.61
539.715,2.37
540.07,2.59
540.426,2.63
540.782,2.52
541.137,2.51
541.493,2.57
541.849,2.43
542.204,2.49
542.56,2.47
542.915,2.56
543.27,3.03
543.626,2.4
543.981,2.53
544.336,2.46
544.691,2.44
545.046,2.62
545.401,2.43
545.756,2.5
546.111,2.73
546.466,2.59
546.821,2.47
547.176,2.84
547.531,2.54
547.886,2.55
548.24,2.41
548.595,2.46
548.95,2.41
549.304,2.48
549.659,2.62
550.013,2.51
550.367,2.41
550.722,2.47
551.076,2.54
551.43,2.49
551.785,2.44
552.139,2.46
552.493,2.57
552.847,2.37
553.201,2.33
553.555,2.5
553.909,2.4
554.263,2.4
554.617,2.36
554.971,2.34
555.324,2.42
555.678,2.46
556.032,2.39
556.385,2.39
556.739,2.43
557.092,2.51
557.446,2.44
557.799,2.48
558.153,2.49
558.506,2.38
558.859,2.38
559.212,2.39
559.566,2.4
559.919,2.3
560.272,2.35
560.625,2.42
560.978,2.35
561.331,2.35
561.684,2.34
562.037,2.24
562.389,2.33
562.742,2.43
563.095,2.31
563.448,2.34
563.8,2.33
564.153,2.39
564.505,2.35
564.858,2.45
565.21,2.36
565.562,2.31
565.915,2.29
566.267,2.3
566.619,2.41
566.972,2.35
567.324,2.3
567.676,2.36
568.028,2.3
568.38,2.25
568.732,2.24
569.084,2.3
569.435,2.3
569.787,2.31
570.139,2.28
570.491,2.29
570.842,2.3
571.194,2.28
571.546,2.31
571.897,2.24
572.249,2.24
572.6,2.29
572.951,2.28
573.303,2.29
573.654,2.22
574.005,2.28
574.356,2.2
574.707,2.24
575.059,2.25
575.41,2.17
575.761,2.18
576.112,2.23
576.462,2.21
576.813,2.21
577.164,2.11
577.515,2.23
577.865,2.17
578.216,2.12
578.567,2.18
578.917,2.15
579.268,2.14
579.618,2.15
579.969,2.13
580.319,2.15
580.669,2.1
581.02,2.13
581.37,2.07
581.72,2.12
582.07,2.09
582.42,2.11
582.77,2.08
583.12,2.12
583.47,2.09
583.82,2.09
584.17,2.07
584.52,2.06
584.869,2.07
585.219,2.02
585.569,2.08
585.918,2.02
586.268,2.02
586.617,2
586.967,2.06
587.316,2.05
587.666,2.02
588.015,2.01
588.364,2
588.713,2.01
589.062,2
589.412,2.01
589.761,1.97
590.11,2
590.459,1.99
590.807,2.01
591.156,1.96
591.505,1.97
591.854,1.93
592.203,1.96
592.551,1.97
592.9,1.96
593.248,1.92
593.597,1.97
593.945,1.92
594.294,1.91
594.642,1.92
594.991,1.88
595.339,1.92
595.687,1.9
596.035,1.89
596.383,1.94
596.732,1.87
597.08,1.89
597.428,1.86
597.775,1.88
598.123,1.87
598.471,1.88
598.819,1.88
599.167,1.87
599.514,1.87
599.862,1.83
600.21,1.82
600.557,1.82
600.905,1.82
601.252,1.83
601.6,1.81
601.947,1.83
602.294,1.8
602.641,1.82
602.989,1.81
603.336,1.8
603.683,1.8
604.03,1.8
604.377,1.79
604.724,1.78
605.071,1.76
605.418,1.77
605.765,1.8
606.111,1.77
606.458,1.76
606.805,1.74
607.151,1.74
607.498,1.75
607.844,1.74
608.191,1.73
608.537,1.72
608.884,1.75
609.23,1.73
609.576,1.72
609.922,1.71
610.269,1.71
610.615,1.71
610.961,1.69
611.307,1.68
611.653,1.69
611.999,1.67
612.345,1.69
612.69,1.69
613.036,1.68
613.382,1.66
613.728,1.67
614.073,1.66
614.419,1.65
614.764,1.65
615.11,1.65
615.455,1.65
615.801,1.65
616.146,1.64
616.491,1.64
616.837,1.63
617.182,1.63
617.527,1.63
617.872,1.62
618.217,1.62
618.562,1.61
618.907,1.63
619.252,1.61
619.597,1.6
619.941,1.61
620.286,1.59
620.631,1.59
620.975,1.6
621.32,1.59
621.665,1.57
622.009,1.59
622.354,1.59
622.698,1.57
623.042,1.57
623.387,1.56
623.731,1.57
624.075,1.56
624.419,1.55
624.763,1.55
625.107,1.56
625.451,1.55
625.795,1.54
626.139,1.54
626.483,1.55
626.827,1.53
627.171,1.53
627.514,1.52
627.858,1.52
628.201,1.5
628.545,1.51
628.888,1.52
629.232,1.51
629.575,1.52
629.919,1.5
630.262,1.5
630.605,1.5
630.948,1.49
631.292,1.48
631.635,1.49
631.978,1.49
632.321,1.49
632.664,1.5
633.007,1.48
633.349,1.47
633.692,1.47
634.035,1.46
634.378,1.46
634.72,1.47
635.063,1.45
635.405,1.45
635.748,1.44
636.09,1.44
636.433,1.44
636.775,1.44
637.117,1.43
637.46,1.43
637.802,1.43
638.144,1.43
638.486,1.43
638.828,1.43
639.17,1.41
639.512,1.42
639.854,1.41
640.196,1.42
640.538,1.41
640.879,1.41
641.221,1.4
641.563,1.4
641.904,1.39
642.246,1.38
642.587,1.4
642.929,1.4
643.27,1.4
643.611,1.39
643.953,1.39
644.294,1.37
644.635,1.37
644.976,1.37
645.317,1.37
645.658,1.36
645.999,1.36
646.34,1.36
646.681,1.36
647.022,1.36
647.363,1.36
647.703,1.35
648.044,1.34
648.385,1.35
648.725,1.35
649.066,1.34
649.406,1.33
649.747,1.34
650.087,1.34
650.428,1.33
650.768,1.33
651.108,1.32
651.448,1.33
651.788,1.33
652.128,1.32
652.468,1.31
652.808,1.32
653.148,1.31
653.488,1.31
653.828,1.3
654.168,1.3
654.507,1.3
654.847,1.31
655.187,1.3
655.526,1.3
655.866,1.29
656.205,1.28
656.545,1.29
656.884,1.29
657.223,1.29
657.563,1.29
657.902,1.28
658.241,1.28
658.58,1.28
658.919,1.27
659.258,1.27
659.597,1.28
659.936,1.26
660.275,1.27
660.614,1.26
660.952,1.25
661.291,1.25
661.63,1.26
661.968,1.25
662.307,1.25
662.645,1.25
662.984,1.25
663.322,1.24
663.661,1.25
663.999,1.24
664.337,1.25
664.675,1.24
665.013,1.24
665.351,1.23
665.689,1.23
666.027,1.22
666.365,1.23
666.703,1.22
667.041,1.22
667.379,1.23
667.717,1.21
668.054,1.22
668.392,1.21
668.729,1.22
669.067,1.22
669.404,1.21
669.742,1.2
670.079,1.2
670.417,1.2
670.754,1.2
671.091,1.2
671.428,1.2
671.765,1.19
672.102,1.2
672.439,1.2
672.776,1.19
673.113,1.19
673.45,1.19
673.787,1.18
674.124,1.18
674.46,1.18
674.797,1.18
675.134,1.18
675.47,1.17
675.807,1.18
676.143,1.17
676.479,1.18
676.816,1.17
677.152,1.16
677.488,1.16
677.824,1.16
678.161,1.16
678.497,1.16
678.833,1.16
679.169,1.16
679.505,1.15
679.84,1.15
680.176,1.15
680.512,1.15
680.848,1.14
681.183,1.15
681.519,1.15
681.855,1.14
682.19,1.14
682.525,1.14
682.861,1.13
683.196,1.14
683.532,1.13
683.867,1.14
684.202,1.14
684.537,1.13
684.872,1.12
685.207,1.12
685.542,1.12
685.877,1.12
686.212,1.13
686.547,1.12
686.882,1.12
687.216,1.12
687.551,1.12
687.886,1.11
688.22,1.11
688.555,1.11
688.889,1.11
689.224,1.1
689.558,1.1
689.892,1.1
690.227,1.1
690.561,1.1
690.895,1.1
691.229,1.1
691.563,1.1
691.897,1.1
692.231,1.09
692.565,1.1
692.899,1.1
693.233,1.09
693.566,1.09
693.9,1.09
694.234,1.09
694.567,1.08
694.901,1.08
695.234,1.08
695.568,1.09
695.901,1.07
696.234,1.08
696.567,1.08
696.901,1.08
697.234,1.08
697.567,1.07
697.9,1.07
698.233,1.07
698.566,1.07
698.899,1.07
699.232,1.07
699.565,1.07
699.897,1.07
700.23,1.07
700.563,1.07
700.895,1.06
701.228,1.06
701.56,1.06
701.893,1.07
702.225,1.06
702.557,1.05
702.89,1.05
703.222,1.06
703.554,1.06
703.886,1.05
704.218,1.05
704.55,1.05
704.882,1.05
705.214,1.04
705.546,1.05
705.878,1.05
706.209,1.05
706.541,1.05
706.873,1.05
707.204,1.04
707.536,1.04
707.867,1.04
708.199,1.04
708.53,1.04
708.861,1.04
709.193,1.03
709.524,1.04
709.855,1.04
710.186,1.04
710.517,1.03
710.848,1.04
711.179,1.03
711.51,1.03
711.841,1.03
712.172,1.03
712.502,1.03
712.833,1.02
713.164,1.03
713.494,1.03
713.825,1.02
714.155,1.02
714.486,1.02
714.816,1.02
715.146,1.02
715.476,1.03
715.807,1.02
716.137,1.02
716.467,1.02
716.797,1.02
717.127,1.02
717.457,1.01
717.787,1.01
718.117,1.02
718.446,1.02
718.776,1.01
719.106,1.02
719.435,1.01
719.765,1.01
720.095,1.01
720.424,1.01
720.753,1.01
721.083,1.01
721.412,1
721.741,1.01
722.07,1.01
722.4,1
722.729,1.01
723.058,1
723.387,1.01
723.716,1
724.044,1.01
724.373,1
724.702,1
725.031,1
725.359,1
725.688,0.99
726.017,1
726.345,0.99
726.674,1
727.002,1
727.33,0.99
727.659,0.99
727.987,0.99
728.315,0.99
728.643,0.99
728.971,0.99
729.299,0.99
729.627,0.99
729.955,0.99
730.283,0.99
730.611,0.98
730.938,0.99
731.266,0.99
731.594,0.98
731.921,0.99
732.249,0.98
732.576,0.98
732.904,0.99
733.231,0.99
733.558,0.98
733.886,0.97
734.213,0.98
734.54,0.98
734.867,0.98
735.194,0.98
735.521,0.98
735.848,0.97
736.175,0.97
736.502,0.97
736.829,0.97
737.155,0.96
737.482,0.96
737.809,0.97
738.135,0.96
738.462,0.96
738.788,0.95
739.115,0.96
739.441,0.95
739.767,0.95
740.093,0.95
740.42,0.94
740.746,0.94
741.072,0.94
741.398,0.93
741.724,0.94
742.05,0.93
742.376,0.93
742.701,0.92
743.027,0.92
743.353,0.92
743.679,0.92
744.004,0.91
744.33,0.91
744.655,0.9
744.981,0.9
745.306,0.89
745.631,0.88
745.957,0.88
746.282,0.88
746.607,0.88
746.932,0.87
747.257,0.86
747.582,0.85
747.907,0.84
748.232,0.84
748.557,0.83
748.881,0.83
749.206,0.82
749.531,0.81
749.855,0.81
750.18,0.8
750.505,0.78
750.829,0.78
751.153,0.77
751.478,0.76
751.802,0.76
752.126,0.74
752.45,0.73
752.775,0.73
753.099,0.72
753.423,0.71
753.747,0.69
754.07,0.69
754.394,0.68
754.718,0.66
755.042,0.65
755.366,0.65
755.689,0.64
756.013,0.62
756.336,0.61
756.66,0.6
756.983,0.59
757.307,0.58
757.63,0.57
757.953,0.56
758.276,0.54
758.599,0.54
758.922,0.53
759.245,0.51
759.568,0.5
759.891,0.49
760.214,0.48
760.537,0.47
760.86,0.46
761.183,0.44
761.505,0.43
761.828,0.42
762.15,0.41
762.473,0.4
762.795,0.39
763.118,0.39
763.44,0.38
763.762,0.37
764.084,0.35
764.407,0.34
764.729,0.34
765.051,0.33
765.373,0.32
765.695,0.31
766.016,0.3
766.338,0.29
766.66,0.29
766.982,0.28
767.303,0.27
767.625,0.26
767.947,0.25
768.268,0.25
768.589,0.24
768.911,0.23
769.232,0.23
769.553,0.22
769.875,0.21
770.196,0.21
770.517,0.2
770.838,0.2
771.159,0.19
771.48,0.19
771.801,0.18
772.122,0.17
772.442,0.17
772.763,0.17
773.084,0.16
773.404,0.15
773.725,0.15
774.045,0.15
774.366,0.14
774.686,0.14
775.007,0.13
775.327,0.13
775.647,0.12
775.967,0.12
776.287,0.12
776.607,0.11
776.927,0.11
777.247,0.11
777.567,0.1
777.887,0.1
778.207,0.1
778.527,0.09
778.846,0.09
779.166,0.09
779.485,0.09
779.805,0.08
780.124,0.08
780.444,0.08
780.763,0.07
781.082,0.08
781.402,0.07
781.721,0.07
782.04,0.07
782.359,0.07
782.678,0.06
782.997,0.06
783.316,0.06
783.635,0.06
783.953,0.06
784.272,0.06
784.591,0.05
784.909,0.05
785.228,0.05
785.546,0.05
785.865,0.04
786.183,0.04
786.501,0.04
786.82,0.04
787.138,0.04
787.456,0.04
787.774,0.04
788.092,0.04
788.41,0.04
788.728,0.04
789.046,0.03
789.364,0.03
789.682,0.03
789.999,0.03
790.317,0.03
790.635,0.03
790.952,0.03
791.27,0.03
791.587,0.02
791.905,0.02
792.222,0.02
792.539,0.02
792.856,0.02
793.173,0.02
793.491,0.02
793.808,0.02
794.125,0.02
794.442,0.02
794.758,0.02
795.075,0.02
795.392,0.02
795.709,0.02
796.025,0.02
796.342,0.02
796.658,0.01
796.975,0.01
797.291,0.01
797.608,0.01
797.924,0.01
798.24,0.01
798.557,0.01
798.873,0.01
799.189,0.01
799.505,0.01
799.821,0.01
800.137,0.01
800.453,0.01
800.768,0.01
801.084,0.01
801.4,0
801.715,0.01
802.031,0.01
802.347,0.01
802.662,0.01
802.977,0.01
803.293,0.01
803.608,0.01
803.923,0.01
804.238,0.01
804.554,0.01
804.869,0.01
805.184,0.01
805.499,0.01
805.814,0.01
806.128,0.01
806.443,0.01
806.758,0.01
807.073,0
807.387,0.01
807.702,0.01
808.016,0.01
808.331,0.01
808.645,0
808.959,0
809.274,0.01
809.588,0.01
809.902,0.01
810.216,0.01
810.53,0
810.844,0
811.158,0
811.472,0
811.786,0.01
812.1,0.01
812.413,0.01
812.727,0.01
813.041,0.01
813.354,0.01
813.668,0.01
813.981,0.01
814.294,0.01
814.608,0.01
814.921,0.01
815.234,0.01
815.547,0.01
815.86,0.01
816.173,0.01
816.486,0
816.799,0.01
817.112,0
817.425,0
817.738,0.01
818.05,0.01
818.363,0.01
818.676,0.01
818.988,0.01
819.301,0.01
819.613,0.01
819.925,0.01
820.238,0.01
820.55,0.01
820.862,0.02
821.174,0.01
821.486,0.01
821.798,0.01
822.11,0.01
822.422,0.01
822.734,0.01
823.046,0.01
823.357,0.02
823.669,0.02
823.981,0.02
824.292,0.01
824.604,0.01
824.915,0.01
825.226,0.01
825.538,0.02
825.849,0.02
826.16,0.02
826.471,0.02
826.782,0.02
827.093,0.02
827.404,0.02
827.715,0.02
828.026,0.02
828.337,0.02
828.648,0.02
828.958,0.01
829.269,0.02
829.58,0.02
829.89,0.02
830.2,0.02
830.511,0.02
830.821,0.02
831.131,0.02
831.442,0.02
831.752,0.02
832.062,0.02
832.372,0.02
832.682,0.02
832.992,0.02
833.302,0.03
833.612,0.03
833.921,0.02
834.231,0.02
834.541,0.03
834.85,0.02
835.16,0.03
835.469,0.03
835.779,0.03
836.088,0.03
836.397,0.03
836.707,0.03
837.016,0.03
837.325,0.03
837.634,0.03
837.943,0.03
838.252,0.03
838.561,0.03
838.87,0.04
839.178,0.03
839.487,0.03
839.796,0.03
840.104,0.03
840.413,0.03
840.721,0.03
841.03,0.03
841.338,0.03
841.647,0.03
841.955,0.04
842.263,0.03
842.571,0.04
842.879,0.03
843.187,0.03
843.495,0.04
843.803,0.04
844.111,0.04
844.419,0.04
844.726,0.04
845.034,0.04
845.342,0.04
845.649,0.04
845.957,0.04
846.264,0.04
846.572,0.04
846.879,0.04
847.186,0.04
847.493,0.04
847.801,0.04
848.108,0.04
848.415,0.04
848.722,0.05
849.029,0.04
849.335,0.04
849.642,0.05
849.949,0.05
850.256,0.05
850.562,0.05
850.869,0.04
851.175,0.04
851.482,0.04
851.788,0.05
852.095,0.04
852.401,0.04
852.707,0.04
853.013,0.04
853.319,0.04
853.625,0.04
853.931,0.04
854.237,0.05
854.543,0.04
854.849,0.05
855.155,0.05
855.46,0.05
855.766,0.05
856.072,0.05
856.377,0.05
856.683,0.05
856.988,0.04
857.293,0.05
857.599,0.05
857.904,0.05
858.209,0.05
858.514,0.05
858.819,0.05
859.124,0.05
859.429,0.06
859.734,0.05
860.039,0.05
860.343,0.05
860.648,0.05
860.953,0.05
861.257,0.05
861.562,0.05
861.866,0.05
862.171,0.05
862.475,0.05
862.779,0.05
863.084,0.05
863.388,0.05
863.692,0.05
863.996,0.05
864.3,0.06
864.604,0.05
864.908,0.05
865.211,0.05
865.515,0.05
865.819,0.05
866.123,0.05
866.426,0.05
866.73,0.05
867.033,0.05
867.336,0.05
867.64,0.05
867.943,0.06
868.246,0.05
868.549,0.05
868.853,0.05
869.156,0.05
869.459,0.05
869.762,0.05
870.064,0.05
870.367,0.05
870.67,0.05
870.973,0.05
871.275,0.05
871.578,0.05
871.88,0.06
872.183,0.05
872.485,0.05
872.787,0.06
873.09,0.05
873.392,0.05
873.694,0.05
873.996,0.05
874.298,0.06
874.6,0.05
874.902,0.05
875.204,0.05
875.506,0.05
875.808,0.05
876.109,0.05
876.411,0.05
876.712,0.05
877.014,0.05
877.315,0.05
877.617,0.05
877.918,0.05
878.219,0.05
878.521,0.05
878.822,0.05
879.123,0.05
879.424,0.05
879.725,0.05
880.026,0.05
880.326,0.05
880.627,0.05
880.928,0.05
881.229,0.05
881.529,0.05
881.83,0.05
882.13,0.05
882.431,0.05
882.731,0.05
883.031,0.05
883.332,0.05
883.632,0.05
883.932,0.05
884.232,0.05
884.532,0.05
884.832,0.05
885.132,0.05
885.432,0.05
885.732,0.05
886.031,0.05
886.331,0.05
886.63,0.04
886.93,0.05
887.229,0.05
887.529,0.05
887.828,0.05
888.128,0.04
888.427,0.04
888.726,0.04
889.025,0.04
889.324,0.05
889.623,0.05
889.922,0.04
890.221,0.05
890.52,0.04
890.818,0.04
891.117,0.04
891.416,0.04
891.714,0.04
892.013,0.04
892.311,0.04
892.61,0.05
892.908,0.04
893.206,0.04
893.505,0.04
893.803,0.04
894.101,0.05
894.399,0.04
894.697,0.04
894.995,0.04
895.293,0.04
895.59,0.04
895.888,0.04
896.186,0.04
896.483,0.04
896.781,0.04
897.078,0.04
897.376,0.04
897.673,0.04
897.971,0.04
898.268,0.04
898.565,0.04
898.862,0.04
899.159,0.03
899.456,0.04
899.753,0.04
900.05,0.04
900.347,0.04
900.644,0.03
900.94,0.04
901.237,0.03
901.534,0.03
901.83,0.03
902.126,0.03
902.423,0.03
902.719,0.03
903.016,0.03
903.312,0.03
903.608,0.03
903.904,0.03
904.2,0.03
904.496,0.03
904.792,0.03
905.088,0.03
905.384,0.03
905.679,0.03
905.975,0.03
906.271,0.03
906.566,0.03
906.862,0.03
907.157,0.02
907.452,0.02
907.748,0.02
908.043,0.03
908.338,0.03
908.633,0.03
908.928,0.03
909.223,0.03
909.518,0.03
909.813,0.02
910.108,0.03
910.403,0.03
910.698,0.02
910.992,0.02
911.287,0.02
911.581,0.02
911.876,0.02
912.17,0.02
912.465,0.02
912.759,0.02
913.053,0.02
913.347,0.02
913.641,0.02
913.935,0.01
914.229,0.02
914.523,0.02
914.817,0.02
915.111,0.02
915.405,0.01
915.698,0.02
915.992,0.02
916.285,0.02
916.579,0.02
916.872,0.02
917.166,0.02
917.459,0.02
917.752,0.02
918.045,0.02
918.338,0.01
918.632,0.02
918.925,0.01
919.217,0.01
919.51,0.02
919.803,0.02
920.096,0.02
920.389,0.01
920.681,0.02
920.974,0.01
921.266,0.01
921.559,0.01
921.851,0.01
922.143,0.02
922.436,0.01
922.728,0.01
923.02,0.01
923.312,0.01
923.604,0.01
923.896,0.01
924.188,0.01
924.48,0.01
924.772,0.01
925.063,0.01
925.355,0.01
925.647,0.01
925.938,0.01
926.23,0.01
926.521,0.01
926.812,0.01
927.104,0.01
927.395,0.01
927.686,0.01
927.977,0.02
928.268,0.01
928.559,0.01
928.85,0.01
929.141,0.01
929.432,0.02
929.722,0.01
930.013,0.01
930.304,0.01
930.594,0.01
930.885,0.01
931.175,0.01
931.465,0.01
931.756,0.01
932.046,0
932.336,0
932.626,0
932.916,0
933.206,0.01
933.496,0.01
933.786,-0.01
934.076,0
934.365,0.01
934.655,0.01
934.945,0
935.234,0.01
935.524,0.01
935.813,0
936.103,0.01
936.392,0
936.681,0.01
936.97,0
937.259,0
937.548,0.01
937.837,0
938.126,0
938.415,0.01
938.704,-0.01
938.993,0
939.281,0.01
939.57,0
939.859,0
940.147,0
940.436,0.01
940.724,-0.01
941.012,0.01
941.301,0.01
941.589,0.01
941.877,0
942.165,0
942.453,0.01
942.741,0.01
943.029,0
943.316,0.01
943.604,0.01
943.892,0.01
944.18,0.01
944.467,0.01
944.755,-0.01
945.042,0
945.329,-0.01
945.617,0.01
945.904,0.01
946.191,0.01
946.478,0
946.765,0.01
947.052,0.01
947.339,0.01
947.626,-0.01
947.913,-0.01
948.2,0
948.486,0.01
948.773,0.01
949.06,0
949.346,0
949.633,0
949.919,-0.01
950.205,0
950.492,0
950.778,-0.01
951.064,0.01
951.35,0.01
951.636,0
951.922,-0.01
952.208,0.01
952.494,0
952.779,-0.01
953.065,-0.01
953.351,0
953.636,0.01
953.922,0.01
954.207,0.01
954.492,0
954.778,0.01
955.063,0.01
955.348,0
955.633,-0.02
955.918,0
956.203,-0.01
956.488,-0.01
956.773,-0.01
957.058,-0.01
957.343,0
957.627,0
957.912,-0.01
958.197,0
958.481,0
958.766,-0.01
959.05,-0.01
959.334,-0.01
959.619,-0.01
959.903,-0.01
960.187,0.02
960.471,0
960.755,-0.01
961.039,0.01
961.323,0
961.606,0
961.89,0.01
962.174,0
962.457,0.01
962.741,-0.01
963.025,0.01
963.308,0.01
963.591,0.01
963.875,0
964.158,0.01
964.441,0
964.724,0.01
965.007,-0.01
965.29,0.02
965.573,0
965.856,-0.01
966.139,-0.01
966.421,0
966.704,0.01
966.987,0
967.269,0.02
967.552,0
967.834,0.01
968.117,0.01
968.399,-0.01
968.681,0.01
968.963,0.02
969.245,-0.01
969.527,0.03
969.809,0
970.091,0.01
970.373,0
970.655,0.02
970.937,0
971.218,0.02
971.5,0
971.781,0
972.063,0.01
972.344,0.01
972.626,0
972.907,-0.01
973.188,0.02
973.469,0.02
973.75,0
974.031,0.01
974.312,0.02
974.593,0
974.874,0.04
975.155,0.01
975.435,-0.01
975.716,0
975.997,0
976.277,0
976.558,0.01
976.838,0.03
977.118,0
977.399,0.02
977.679,-0.01
977.959,-0.01
978.239,0.02
978.519,0
978.799,0.02
979.079,0.05
979.359,0.02
979.638,0.04
979.918,0
980.198,0.03
980.477,0.03
980.757,-0.02
981.036,0.06
981.315,-0.02
981.595,0.04
981.874,0.02
982.153,0.01
982.432,0.01
982.711,-0.02
982.99,0
983.269,-0.02
983.548,0.05
983.827,0.05
984.105,0.1
984.384,0.05
984.663,-0.04
984.941,0
985.22,0.04
985.498,-0.01
985.776,-0.01
986.055,-0.01
986.333,0
986.611,-0.03
986.889,0.03
987.167,0.03
987.445,0.01
987.723,0.09
988.001,0.06
988.279,0.05
988.556,0.06
988.834,0.04
989.112,0.01
989.389,-0.02
989.666,-0.01
989.944,-0.04
990.221,0.06
990.498,0.03
990.776,0.01
991.053,0.05
991.33,0.03
991.607,-0.04
991.884,-0.01
992.161,0.05
992.437,0
992.714,0.07
992.991,0
993.267,0.04
993.544,0.02
993.82,0.04
994.097,0.06
994.373,0.06
994.649,0.05
994.926,0
995.202,0.06
995.478,0.13
995.754,0.1
996.03,0.12
996.306,-0.09
996.582,0.02
996.857,-0.02
997.133,0.04
997.409,0.05
997.684,0.13
997.96,0.1
998.235,0.06
998.511,0.13
998.786,0.12
999.061,0.04
999.336,0.04
999.611,-0.07
999.886,0.01
1000.161,0.06
1000.436,0.07
1000.711,0.17
1000.986,0.11
1001.261,-0.01
1001.535,0.06
1001.81,-0.03
1002.085,0.03
1002.359,0.06
1002.633,-0.02
1002.908,0.07
1003.182,0.08
1003.456,0.3
1003.73,0.03
1004.004,-0.05
1004.278,-0.02
1004.552,-0.12
1004.826,0.07
1005.1,0.06
1005.374,0.13
1005.648,-0.02
1005.921,0.04
1006.195,0.19
1006.468,0.11
1006.742,0.08
1007.015,0.15
1007.288,0.08
1007.562,0.11
1007.835,0.19
1008.108,-0.31
1008.381,0.18
1008.654,0.24
1008.927,0.08
1009.2,-0.05
1009.472,0.09
1009.745,0.15
1010.018,0.11
1010.29,0.12
1010.563,0.08
1010.835,0.1
1011.108,0.05
1011.38,-0.07
1011.652,-0.04
1011.924,0.11
1012.197,0.09
1012.469,0.08
1012.741,0
1013.013,0.13
1013.284,0
1013.556,0.14
1013.828,0.08
1014.1,0.1
1014.371,0.15
1014.643,0.02
1014.914,0.15
1015.186,0.15
1015.457,0.15
