Wavelength_(nm), QDs_Absorbance_(a.u.)
340.712,0
341.091,0
341.47,0
341.849,0
342.229,0.59
342.608,0
342.987,0.61
343.366,0
343.745,-0.16
344.124,0
344.503,0.27
344.881,-0.43
345.26,0
345.639,0.14
346.018,0.28
346.396,0
346.775,0.98
347.154,-0.03
347.532,0
347.911,-0.23
348.289,0.4
348.668,0
349.046,0.07
349.425,-0.15
349.803,0.2
350.181,0.2
350.56,0.23
350.938,0.26
351.316,0.18
351.694,0.27
352.072,0.17
352.45,0.24
352.828,0.2
353.206,0.16
353.584,0.31
353.962,0.37
354.34,0.3
354.718,0.26
355.095,0.24
355.473,0.35
355.851,0.24
356.229,0.28
356.606,0.32
356.984,0.34
357.361,0.27
357.739,0.26
358.116,0.28
358.494,0.32
358.871,0.27
359.248,0.28
359.626,0.34
360.003,0.24
360.38,0.27
360.757,0.33
361.134,0.31
361.511,0.3
361.888,0.25
362.265,0.36
362.642,0.2
363.019,0.2
363.396,0.3
363.773,0.34
364.15,0.37
364.527,0.27
364.903,0.27
365.28,0.28
365.657,0.36
366.033,0.36
366.41,0.35
366.786,0.27
367.163,0.27
367.539,0.35
367.915,0.23
368.292,0.45
368.668,0.35
369.044,0.3
369.421,0.3
369.797,0.36
370.173,0.4
370.549,0.12
370.925,0.34
371.301,0.31
371.677,0.31
372.053,0.25
372.429,0.18
372.805,0.38
373.181,0.34
373.556,0.2
373.932,0.28
374.308,0.26
374.683,0.27
375.059,0.32
375.435,0.27
375.81,0.48
376.186,0.4
376.561,0.46
376.936,0.42
377.312,0.45
377.687,0.51
378.062,0.39
378.438,0.56
378.813,0.57
379.188,0.65
379.563,0.52
379.938,0.6
380.313,0.63
380.688,0.64
381.063,0.63
381.438,0.63
381.813,0.72
382.188,0.74
382.563,0.79
382.937,0.81
383.312,0.81
383.687,0.83
384.061,0.82
384.436,0.83
384.81,0.87
385.185,0.83
385.559,0.9
385.934,0.87
386.308,0.89
386.682,0.9
387.057,0.92
387.431,0.93
387.805,0.91
388.179,0.92
388.553,0.95
388.927,0.98
389.301,0.95
389.675,0.94
390.049,0.95
390.423,0.96
390.797,0.97
391.171,0.97
391.545,0.98
391.919,0.97
392.292,0.97
392.666,0.97
393.04,0.97
393.413,0.97
393.787,0.98
394.16,0.97
394.534,0.99
394.907,0.99
395.28,0.97
395.654,0.98
396.027,0.98
396.4,0.98
396.773,0.98
397.147,0.97
397.52,0.97
397.893,0.98
398.266,0.97
398.639,0.98
399.012,0.97
399.385,0.97
399.757,0.97
400.13,0.97
400.503,0.96
400.876,0.96
401.248,0.96
401.621,0.96
401.994,0.96
402.366,0.95
402.739,0.95
403.111,0.95
403.484,0.95
403.856,0.95
404.229,0.95
404.601,0.94
404.973,0.95
405.345,0.95
405.718,0.94
406.09,0.94
406.462,0.93
406.834,0.94
407.206,0.93
407.578,0.93
407.95,0.92
408.322,0.91
408.693,0.92
409.065,0.91
409.437,0.91
409.809,0.9
410.18,0.9
410.552,0.89
410.924,0.89
411.295,0.89
411.667,0.88
412.038,0.88
412.41,0.88
412.781,0.87
413.152,0.87
413.524,0.85
413.895,0.86
414.266,0.85
414.637,0.85
415.008,0.84
415.38,0.84
415.751,0.84
416.122,0.84
416.493,0.83
416.863,0.82
417.234,0.82
417.605,0.82
417.976,0.81
418.347,0.81
418.717,0.81
419.088,0.81
419.459,0.8
419.829,0.8
420.2,0.8
420.57,0.79
420.941,0.79
421.311,0.79
421.682,0.79
422.052,0.78
422.422,0.78
422.792,0.78
423.163,0.78
423.533,0.78
423.903,0.78
424.273,0.77
424.643,0.77
425.013,0.77
425.383,0.77
425.753,0.76
426.123,0.76
426.492,0.76
426.862,0.76
427.232,0.75
427.602,0.75
427.971,0.75
428.341,0.75
428.71,0.75
429.08,0.74
429.449,0.74
429.819,0.74
430.188,0.74
430.557,0.73
430.927,0.73
431.296,0.72
431.665,0.72
432.034,0.71
432.403,0.71
432.772,0.71
433.142,0.71
433.51,0.71
433.879,0.7
434.248,0.7
434.617,0.69
434.986,0.69
435.355,0.68
435.724,0.68
436.092,0.68
436.461,0.68
436.829,0.67
437.198,0.67
437.567,0.67
437.935,0.67
438.303,0.65
438.672,0.66
439.04,0.66
439.408,0.65
439.777,0.64
440.145,0.65
440.513,0.63
440.881,0.63
441.249,0.65
441.617,0.63
441.985,0.64
442.353,0.65
442.721,0.63
443.089,0.64
443.457,0.63
443.825,0.62
444.192,0.64
444.56,0.62
444.928,0.63
445.295,0.62
445.663,0.61
446.03,0.62
446.398,0.61
446.765,0.63
447.133,0.61
447.5,0.62
447.867,0.62
448.235,0.6
448.602,0.6
448.969,0.61
449.336,0.6
449.703,0.61
450.07,0.6
450.437,0.61
450.804,0.6
451.171,0.6
451.538,0.59
451.905,0.61
452.271,0.6
452.638,0.59
453.005,0.6
453.372,0.59
453.738,0.6
454.105,0.59
454.471,0.6
454.838,0.59
455.204,0.59
455.57,0.59
455.937,0.59
456.303,0.6
456.669,0.59
457.036,0.59
457.402,0.6
457.768,0.59
458.134,0.6
458.5,0.58
458.866,0.59
459.232,0.58
459.598,0.58
459.964,0.58
460.329,0.58
460.695,0.59
461.061,0.58
461.427,0.58
461.792,0.58
462.158,0.58
462.523,0.57
462.889,0.56
463.254,0.56
463.62,0.57
463.985,0.57
464.35,0.56
464.716,0.57
465.081,0.56
465.446,0.56
465.811,0.56
466.176,0.56
466.541,0.56
466.906,0.55
467.271,0.56
467.636,0.56
468.001,0.56
468.366,0.55
468.731,0.55
469.096,0.54
469.46,0.55
469.825,0.56
470.19,0.55
470.554,0.55
470.919,0.54
471.283,0.55
471.648,0.55
472.012,0.55
472.376,0.55
472.741,0.56
473.105,0.54
473.469,0.55
473.833,0.55
474.197,0.55
474.561,0.55
474.925,0.55
475.289,0.55
475.653,0.55
476.017,0.55
476.381,0.55
476.745,0.54
477.109,0.54
477.472,0.55
477.836,0.55
478.2,0.55
478.563,0.54
478.927,0.54
479.29,0.54
479.654,0.54
480.017,0.54
480.381,0.54
480.744,0.53
481.107,0.54
481.471,0.54
481.834,0.53
482.197,0.52
482.56,0.53
482.923,0.53
483.286,0.53
483.649,0.52
484.012,0.52
484.375,0.51
484.738,0.51
485.1,0.51
485.463,0.51
485.826,0.5
486.188,0.51
486.551,0.5
486.914,0.5
487.276,0.5
487.639,0.49
488.001,0.49
488.363,0.49
488.726,0.49
489.088,0.49
489.45,0.49
489.812,0.49
490.175,0.48
490.537,0.49
490.899,0.49
491.261,0.48
491.623,0.48
491.985,0.49
492.347,0.49
492.708,0.49
493.07,0.49
493.432,0.49
493.794,0.49
494.155,0.49
494.517,0.49
494.879,0.49
495.24,0.5
495.602,0.49
495.963,0.5
496.324,0.5
496.686,0.5
497.047,0.5
497.408,0.5
497.769,0.51
498.131,0.5
498.492,0.5
498.853,0.51
499.214,0.5
499.575,0.5
499.936,0.5
500.297,0.49
500.658,0.49
501.018,0.48
501.379,0.48
501.74,0.48
502.1,0.46
502.461,0.47
502.822,0.45
503.182,0.44
503.543,0.44
503.903,0.43
504.263,0.42
504.624,0.41
504.984,0.4
505.344,0.4
505.705,0.39
506.065,0.38
506.425,0.37
506.785,0.36
507.145,0.34
507.505,0.35
507.865,0.33
508.225,0.33
508.585,0.33
508.944,0.31
509.304,0.3
509.664,0.3
510.023,0.3
510.383,0.29
510.743,0.28
511.102,0.28
511.462,0.27
511.821,0.27
512.18,0.26
512.54,0.26
512.899,0.26
513.258,0.25
513.618,0.25
513.977,0.25
514.336,0.24
514.695,0.25
515.054,0.24
515.413,0.24
515.772,0.24
516.131,0.24
516.49,0.23
516.848,0.24
517.207,0.23
517.566,0.23
517.924,0.23
518.283,0.23
518.642,0.23
519,0.23
519.359,0.23
519.717,0.22
520.075,0.23
520.434,0.22
520.792,0.22
521.15,0.22
521.508,0.22
521.867,0.22
522.225,0.22
522.583,0.22
522.941,0.22
523.299,0.22
523.657,0.21
524.014,0.21
524.372,0.22
524.73,0.21
525.088,0.21
525.445,0.21
525.803,0.21
526.161,0.21
526.518,0.21
526.876,0.2
527.233,0.21
527.591,0.2
527.948,0.2
528.305,0.2
528.662,0.2
529.02,0.2
529.377,0.2
529.734,0.2
530.091,0.2
530.448,0.2
530.805,0.2
531.162,0.2
531.519,0.19
531.876,0.19
532.233,0.19
532.589,0.19
532.946,0.2
533.303,0.19
533.659,0.19
534.016,0.19
534.372,0.19
534.729,0.19
535.085,0.19
535.442,0.19
535.798,0.19
536.154,0.18
536.511,0.19
536.867,0.19
537.223,0.18
537.579,0.19
537.935,0.19
538.291,0.18
538.647,0.18
539.003,0.18
539.359,0.18
539.715,0.18
540.07,0.18
540.426,0.18
540.782,0.18
541.137,0.18
541.493,0.18
541.849,0.18
542.204,0.18
542.56,0.18
542.915,0.18
543.27,0.17
543.626,0.18
543.981,0.18
544.336,0.18
544.691,0.17
545.046,0.17
545.401,0.17
545.756,0.17
546.111,0.17
546.466,0.17
546.821,0.17
547.176,0.17
547.531,0.17
547.886,0.17
548.24,0.17
548.595,0.17
548.95,0.17
549.304,0.17
549.659,0.17
550.013,0.17
550.367,0.17
550.722,0.17
551.076,0.17
551.43,0.17
551.785,0.16
552.139,0.17
552.493,0.16
552.847,0.16
553.201,0.16
553.555,0.16
553.909,0.16
554.263,0.16
554.617,0.16
554.971,0.16
555.324,0.16
555.678,0.16
556.032,0.16
556.385,0.16
556.739,0.16
557.092,0.16
557.446,0.16
557.799,0.16
558.153,0.16
558.506,0.16
558.859,0.16
559.212,0.16
559.566,0.15
559.919,0.16
560.272,0.16
560.625,0.15
560.978,0.15
561.331,0.15
561.684,0.15
562.037,0.15
562.389,0.15
562.742,0.15
563.095,0.15
563.448,0.15
563.8,0.15
564.153,0.15
564.505,0.15
564.858,0.15
565.21,0.15
565.562,0.15
565.915,0.15
566.267,0.15
566.619,0.15
566.972,0.15
567.324,0.15
567.676,0.15
568.028,0.15
568.38,0.15
568.732,0.14
569.084,0.14
569.435,0.14
569.787,0.14
570.139,0.14
570.491,0.14
570.842,0.14
571.194,0.14
571.546,0.14
571.897,0.14
572.249,0.14
572.6,0.14
572.951,0.14
573.303,0.14
573.654,0.14
574.005,0.14
574.356,0.14
574.707,0.14
575.059,0.14
575.41,0.14
575.761,0.14
576.112,0.14
576.462,0.13
576.813,0.13
577.164,0.14
577.515,0.13
577.865,0.13
578.216,0.13
578.567,0.13
578.917,0.13
579.268,0.13
579.618,0.13
579.969,0.13
580.319,0.13
580.669,0.13
581.02,0.13
581.37,0.13
581.72,0.13
582.07,0.13
582.42,0.13
582.77,0.13
583.12,0.13
583.47,0.13
583.82,0.13
584.17,0.13
584.52,0.13
584.869,0.13
585.219,0.13
585.569,0.13
585.918,0.13
586.268,0.12
586.617,0.13
586.967,0.13
587.316,0.12
587.666,0.12
588.015,0.13
588.364,0.12
588.713,0.13
589.062,0.13
589.412,0.13
589.761,0.12
590.11,0.12
590.459,0.12
590.807,0.12
591.156,0.13
591.505,0.12
591.854,0.12
592.203,0.13
592.551,0.12
592.9,0.12
593.248,0.12
593.597,0.12
593.945,0.12
594.294,0.12
594.642,0.12
594.991,0.12
595.339,0.12
595.687,0.12
596.035,0.12
596.383,0.12
596.732,0.12
597.08,0.12
597.428,0.12
597.775,0.12
598.123,0.12
598.471,0.12
598.819,0.12
599.167,0.12
599.514,0.12
599.862,0.12
600.21,0.12
600.557,0.12
600.905,0.12
601.252,0.12
601.6,0.12
601.947,0.12
602.294,0.12
602.641,0.12
602.989,0.12
603.336,0.12
603.683,0.12
604.03,0.12
604.377,0.12
604.724,0.12
605.071,0.12
605.418,0.11
605.765,0.11
606.111,0.11
606.458,0.11
606.805,0.11
607.151,0.11
607.498,0.11
607.844,0.11
608.191,0.11
608.537,0.11
608.884,0.11
609.23,0.11
609.576,0.11
609.922,0.11
610.269,0.11
610.615,0.11
610.961,0.11
611.307,0.11
611.653,0.11
611.999,0.11
612.345,0.11
612.69,0.11
613.036,0.11
613.382,0.11
613.728,0.11
614.073,0.11
614.419,0.11
614.764,0.11
615.11,0.11
615.455,0.1
615.801,0.1
616.146,0.11
616.491,0.11
616.837,0.11
617.182,0.1
617.527,0.1
617.872,0.11
618.217,0.1
618.562,0.1
618.907,0.1
619.252,0.1
619.597,0.1
619.941,0.1
620.286,0.1
620.631,0.1
620.975,0.1
621.32,0.1
621.665,0.1
622.009,0.1
622.354,0.1
622.698,0.1
623.042,0.1
623.387,0.1
623.731,0.1
624.075,0.1
624.419,0.1
624.763,0.1
625.107,0.1
625.451,0.1
625.795,0.1
626.139,0.1
626.483,0.1
626.827,0.1
627.171,0.1
627.514,0.1
627.858,0.09
628.201,0.09
628.545,0.09
628.888,0.1
629.232,0.09
629.575,0.09
629.919,0.09
630.262,0.1
630.605,0.09
630.948,0.09
631.292,0.09
631.635,0.09
631.978,0.09
632.321,0.09
632.664,0.09
633.007,0.09
633.349,0.09
633.692,0.09
634.035,0.09
634.378,0.09
634.72,0.09
635.063,0.09
635.405,0.09
635.748,0.09
636.09,0.09
636.433,0.09
636.775,0.09
637.117,0.09
637.46,0.09
637.802,0.09
638.144,0.09
638.486,0.09
638.828,0.09
639.17,0.09
639.512,0.09
639.854,0.09
640.196,0.09
640.538,0.09
640.879,0.09
641.221,0.09
641.563,0.09
641.904,0.09
642.246,0.09
642.587,0.09
642.929,0.09
643.27,0.09
643.611,0.09
643.953,0.09
644.294,0.09
644.635,0.09
644.976,0.09
645.317,0.09
645.658,0.09
645.999,0.09
646.34,0.09
646.681,0.09
647.022,0.09
647.363,0.09
647.703,0.09
648.044,0.09
648.385,0.09
648.725,0.09
649.066,0.09
649.406,0.09
649.747,0.09
650.087,0.09
650.428,0.09
650.768,0.09
651.108,0.09
651.448,0.09
651.788,0.09
652.128,0.09
652.468,0.09
652.808,0.09
653.148,0.09
653.488,0.09
653.828,0.09
654.168,0.09
654.507,0.09
654.847,0.09
655.187,0.09
655.526,0.09
655.866,0.09
656.205,0.09
656.545,0.09
656.884,0.09
657.223,0.09
657.563,0.09
657.902,0.09
658.241,0.09
658.58,0.09
658.919,0.09
659.258,0.09
659.597,0.09
659.936,0.09
660.275,0.09
660.614,0.09
660.952,0.09
661.291,0.09
661.63,0.09
661.968,0.09
662.307,0.09
662.645,0.09
662.984,0.09
663.322,0.09
663.661,0.09
663.999,0.09
664.337,0.08
664.675,0.09
665.013,0.08
665.351,0.08
665.689,0.09
666.027,0.09
666.365,0.08
666.703,0.08
667.041,0.09
667.379,0.09
667.717,0.08
668.054,0.08
668.392,0.08
668.729,0.08
669.067,0.08
669.404,0.08
669.742,0.08
670.079,0.08
670.417,0.08
670.754,0.08
671.091,0.08
671.428,0.08
671.765,0.08
672.102,0.08
672.439,0.08
672.776,0.08
673.113,0.08
673.45,0.08
673.787,0.08
674.124,0.08
674.46,0.08
674.797,0.08
675.134,0.08
675.47,0.08
675.807,0.08
676.143,0.08
676.479,0.08
676.816,0.08
677.152,0.08
677.488,0.08
677.824,0.08
678.161,0.08
678.497,0.08
678.833,0.08
679.169,0.08
679.505,0.08
679.84,0.08
680.176,0.08
680.512,0.08
680.848,0.08
681.183,0.08
681.519,0.08
681.855,0.07
682.19,0.07
682.525,0.08
682.861,0.08
683.196,0.07
683.532,0.08
683.867,0.07
684.202,0.07
684.537,0.07
684.872,0.07
685.207,0.07
685.542,0.07
685.877,0.07
686.212,0.07
686.547,0.07
686.882,0.07
687.216,0.07
687.551,0.07
687.886,0.07
688.22,0.07
688.555,0.07
688.889,0.07
689.224,0.07
689.558,0.07
689.892,0.07
690.227,0.07
690.561,0.07
690.895,0.07
691.229,0.07
691.563,0.07
691.897,0.07
692.231,0.07
692.565,0.07
692.899,0.07
693.233,0.07
693.566,0.07
693.9,0.07
694.234,0.07
694.567,0.07
694.901,0.07
695.234,0.07
695.568,0.07
695.901,0.07
696.234,0.07
696.567,0.07
696.901,0.07
697.234,0.07
697.567,0.07
697.9,0.07
698.233,0.07
698.566,0.07
698.899,0.07
699.232,0.07
699.565,0.07
699.897,0.07
700.23,0.07
700.563,0.07
700.895,0.07
701.228,0.07
701.56,0.07
701.893,0.07
702.225,0.07
702.557,0.07
702.89,0.07
703.222,0.07
703.554,0.07
703.886,0.07
704.218,0.07
704.55,0.07
704.882,0.07
705.214,0.07
705.546,0.07
705.878,0.07
706.209,0.07
706.541,0.07
706.873,0.07
707.204,0.07
707.536,0.07
707.867,0.07
708.199,0.07
708.53,0.07
708.861,0.07
709.193,0.07
709.524,0.07
709.855,0.07
710.186,0.07
710.517,0.07
710.848,0.07
711.179,0.07
711.51,0.07
711.841,0.07
712.172,0.07
712.502,0.07
712.833,0.07
713.164,0.07
713.494,0.07
713.825,0.07
714.155,0.07
714.486,0.07
714.816,0.07
715.146,0.07
715.476,0.07
715.807,0.07
716.137,0.07
716.467,0.07
716.797,0.07
717.127,0.07
717.457,0.07
717.787,0.07
718.117,0.07
718.446,0.07
718.776,0.07
719.106,0.07
719.435,0.07
719.765,0.07
720.095,0.07
720.424,0.07
720.753,0.07
721.083,0.07
721.412,0.07
721.741,0.07
722.07,0.07
722.4,0.07
722.729,0.07
723.058,0.07
723.387,0.07
723.716,0.07
724.044,0.07
724.373,0.07
724.702,0.07
725.031,0.07
725.359,0.07
725.688,0.07
726.017,0.07
726.345,0.07
726.674,0.07
727.002,0.07
727.33,0.07
727.659,0.07
727.987,0.07
728.315,0.07
728.643,0.07
728.971,0.07
729.299,0.07
729.627,0.07
729.955,0.07
730.283,0.07
730.611,0.07
730.938,0.07
731.266,0.07
731.594,0.07
731.921,0.07
732.249,0.07
732.576,0.07
732.904,0.07
733.231,0.07
733.558,0.07
733.886,0.07
734.213,0.07
734.54,0.07
734.867,0.07
735.194,0.07
735.521,0.07
735.848,0.07
736.175,0.07
736.502,0.07
736.829,0.07
737.155,0.07
737.482,0.07
737.809,0.07
738.135,0.07
738.462,0.07
738.788,0.07
739.115,0.07
739.441,0.07
739.767,0.07
740.093,0.07
740.42,0.07
740.746,0.07
741.072,0.07
741.398,0.07
741.724,0.07
742.05,0.07
742.376,0.07
742.701,0.07
743.027,0.07
743.353,0.07
743.679,0.07
744.004,0.07
744.33,0.07
744.655,0.07
744.981,0.07
745.306,0.07
745.631,0.07
745.957,0.07
746.282,0.07
746.607,0.07
746.932,0.07
747.257,0.07
747.582,0.07
747.907,0.07
748.232,0.07
748.557,0.07
748.881,0.07
749.206,0.07
749.531,0.07
749.855,0.07
750.18,0.07
750.505,0.07
750.829,0.07
751.153,0.07
751.478,0.07
751.802,0.07
752.126,0.07
752.45,0.07
752.775,0.07
753.099,0.07
753.423,0.07
753.747,0.07
754.07,0.07
754.394,0.07
754.718,0.07
755.042,0.07
755.366,0.07
755.689,0.07
756.013,0.07
756.336,0.07
756.66,0.07
756.983,0.07
757.307,0.07
757.63,0.07
757.953,0.07
758.276,0.07
758.599,0.07
758.922,0.07
759.245,0.07
759.568,0.07
759.891,0.07
760.214,0.07
760.537,0.07
760.86,0.07
761.183,0.07
761.505,0.07
761.828,0.07
762.15,0.07
762.473,0.07
762.795,0.07
763.118,0.07
763.44,0.06
763.762,0.07
764.084,0.07
764.407,0.07
764.729,0.07
765.051,0.07
765.373,0.06
765.695,0.06
766.016,0.06
766.338,0.06
766.66,0.06
766.982,0.07
767.303,0.07
767.625,0.07
767.947,0.07
768.268,0.07
768.589,0.06
768.911,0.07
769.232,0.07
769.553,0.07
769.875,0.07
770.196,0.07
770.517,0.07
770.838,0.06
771.159,0.07
771.48,0.07
771.801,0.07
772.122,0.06
772.442,0.07
772.763,0.07
773.084,0.07
773.404,0.07
773.725,0.06
774.045,0.06
774.366,0.07
774.686,0.06
775.007,0.06
775.327,0.06
775.647,0.06
775.967,0.06
776.287,0.06
776.607,0.07
776.927,0.06
777.247,0.07
777.567,0.06
777.887,0.06
778.207,0.06
778.527,0.06
778.846,0.06
779.166,0.07
779.485,0.06
779.805,0.06
780.124,0.07
780.444,0.06
780.763,0.06
781.082,0.06
781.402,0.06
781.721,0.06
782.04,0.06
782.359,0.06
782.678,0.06
782.997,0.06
783.316,0.06
783.635,0.07
783.953,0.07
784.272,0.07
784.591,0.06
784.909,0.06
785.228,0.06
785.546,0.06
785.865,0.07
786.183,0.06
786.501,0.06
786.82,0.06
787.138,0.06
787.456,0.06
787.774,0.06
788.092,0.07
788.41,0.06
788.728,0.06
789.046,0.06
789.364,0.06
789.682,0.06
789.999,0.06
790.317,0.06
790.635,0.06
790.952,0.06
791.27,0.06
791.587,0.06
791.905,0.06
792.222,0.06
792.539,0.06
792.856,0.06
793.173,0.06
793.491,0.06
793.808,0.06
794.125,0.06
794.442,0.06
794.758,0.06
795.075,0.06
795.392,0.07
795.709,0.06
796.025,0.07
796.342,0.06
796.658,0.06
796.975,0.06
797.291,0.06
797.608,0.06
797.924,0.06
798.24,0.06
798.557,0.06
798.873,0.06
799.189,0.06
799.505,0.07
799.821,0.06
800.137,0.06
800.453,0.06
800.768,0.06
801.084,0.06
801.4,0.06
801.715,0.06
802.031,0.06
802.347,0.06
802.662,0.06
802.977,0.06
803.293,0.06
803.608,0.06
803.923,0.06
804.238,0.06
804.554,0.06
804.869,0.06
805.184,0.06
805.499,0.06
805.814,0.06
806.128,0.06
806.443,0.06
806.758,0.06
807.073,0.06
807.387,0.06
807.702,0.06
808.016,0.06
808.331,0.06
808.645,0.06
808.959,0.06
809.274,0.06
809.588,0.06
809.902,0.06
810.216,0.06
810.53,0.06
810.844,0.06
811.158,0.06
811.472,0.06
811.786,0.06
812.1,0.06
812.413,0.06
812.727,0.06
813.041,0.06
813.354,0.06
813.668,0.06
813.981,0.06
814.294,0.06
814.608,0.06
814.921,0.06
815.234,0.06
815.547,0.06
815.86,0.06
816.173,0.07
816.486,0.06
816.799,0.06
817.112,0.06
817.425,0.06
817.738,0.06
818.05,0.05
818.363,0.06
818.676,0.06
818.988,0.06
819.301,0.06
819.613,0.06
819.925,0.06
820.238,0.06
820.55,0.05
820.862,0.06
821.174,0.06
821.486,0.06
821.798,0.06
822.11,0.06
822.422,0.06
822.734,0.06
823.046,0.06
823.357,0.06
823.669,0.06
823.981,0.06
824.292,0.06
824.604,0.06
824.915,0.06
825.226,0.06
825.538,0.06
825.849,0.06
826.16,0.06
826.471,0.06
826.782,0.06
827.093,0.06
827.404,0.06
827.715,0.06
828.026,0.06
828.337,0.05
828.648,0.06
828.958,0.06
829.269,0.06
829.58,0.05
829.89,0.06
830.2,0.06
830.511,0.06
830.821,0.06
831.131,0.06
831.442,0.06
831.752,0.06
832.062,0.05
832.372,0.06
832.682,0.06
832.992,0.06
833.302,0.06
833.612,0.06
833.921,0.06
834.231,0.05
834.541,0.06
834.85,0.06
835.16,0.06
835.469,0.05
835.779,0.05
836.088,0.06
836.397,0.06
836.707,0.06
837.016,0.06
837.325,0.05
837.634,0.06
837.943,0.06
838.252,0.06
838.561,0.06
838.87,0.05
839.178,0.06
839.487,0.05
839.796,0.06
840.104,0.06
840.413,0.05
840.721,0.06
841.03,0.06
841.338,0.06
841.647,0.06
841.955,0.06
842.263,0.06
842.571,0.05
842.879,0.05
843.187,0.06
843.495,0.05
843.803,0.05
844.111,0.05
844.419,0.06
844.726,0.05
845.034,0.06
845.342,0.06
845.649,0.05
845.957,0.06
846.264,0.06
846.572,0.06
846.879,0.06
847.186,0.06
847.493,0.06
847.801,0.06
848.108,0.06
848.415,0.06
848.722,0.06
849.029,0.06
849.335,0.06
849.642,0.06
849.949,0.06
850.256,0.06
850.562,0.05
850.869,0.06
851.175,0.05
851.482,0.06
851.788,0.06
852.095,0.05
852.401,0.06
852.707,0.05
853.013,0.06
853.319,0.06
853.625,0.06
853.931,0.06
854.237,0.05
854.543,0.06
854.849,0.05
855.155,0.05
855.46,0.05
855.766,0.05
856.072,0.06
856.377,0.05
856.683,0.06
856.988,0.05
857.293,0.05
857.599,0.05
857.904,0.06
858.209,0.06
858.514,0.05
858.819,0.05
859.124,0.06
859.429,0.05
859.734,0.06
860.039,0.05
860.343,0.05
860.648,0.05
860.953,0.05
861.257,0.05
861.562,0.05
861.866,0.05
862.171,0.06
862.475,0.05
862.779,0.05
863.084,0.05
863.388,0.05
863.692,0.05
863.996,0.05
864.3,0.06
864.604,0.05
864.908,0.05
865.211,0.05
865.515,0.05
865.819,0.05
866.123,0.05
866.426,0.05
866.73,0.05
867.033,0.05
867.336,0.05
867.64,0.05
867.943,0.05
868.246,0.05
868.549,0.05
868.853,0.05
869.156,0.04
869.459,0.05
869.762,0.05
870.064,0.05
870.367,0.05
870.67,0.05
870.973,0.06
871.275,0.05
871.578,0.05
871.88,0.05
872.183,0.05
872.485,0.05
872.787,0.05
873.09,0.05
873.392,0.06
873.694,0.05
873.996,0.05
874.298,0.05
874.6,0.05
874.902,0.05
875.204,0.05
875.506,0.05
875.808,0.05
876.109,0.05
876.411,0.05
876.712,0.05
877.014,0.05
877.315,0.05
877.617,0.05
877.918,0.05
878.219,0.05
878.521,0.05
878.822,0.05
879.123,0.06
879.424,0.05
879.725,0.06
880.026,0.05
880.326,0.05
880.627,0.05
880.928,0.06
881.229,0.05
881.529,0.05
881.83,0.05
882.13,0.05
882.431,0.05
882.731,0.05
883.031,0.05
883.332,0.05
883.632,0.05
883.932,0.05
884.232,0.05
884.532,0.05
884.832,0.05
885.132,0.05
885.432,0.05
885.732,0.05
886.031,0.05
886.331,0.05
886.63,0.05
886.93,0.05
887.229,0.06
887.529,0.05
887.828,0.05
888.128,0.05
888.427,0.04
888.726,0.05
889.025,0.05
889.324,0.05
889.623,0.05
889.922,0.05
890.221,0.05
890.52,0.05
890.818,0.05
891.117,0.05
891.416,0.04
891.714,0.05
892.013,0.05
892.311,0.05
892.61,0.05
892.908,0.05
893.206,0.05
893.505,0.05
893.803,0.05
894.101,0.05
894.399,0.05
894.697,0.05
894.995,0.04
895.293,0.05
895.59,0.05
895.888,0.05
896.186,0.05
896.483,0.05
896.781,0.05
897.078,0.05
897.376,0.05
897.673,0.05
897.971,0.05
898.268,0.05
898.565,0.04
898.862,0.04
899.159,0.04
899.456,0.04
899.753,0.04
900.05,0.05
900.347,0.04
900.644,0.04
900.94,0.05
901.237,0.05
901.534,0.05
901.83,0.05
902.126,0.05
902.423,0.05
902.719,0.04
903.016,0.05
903.312,0.05
903.608,0.05
903.904,0.05
904.2,0.05
904.496,0.05
904.792,0.05
905.088,0.05
905.384,0.05
905.679,0.05
905.975,0.05
906.271,0.05
906.566,0.05
906.862,0.05
907.157,0.05
907.452,0.05
907.748,0.05
908.043,0.05
908.338,0.05
908.633,0.04
908.928,0.05
909.223,0.05
909.518,0.04
909.813,0.05
910.108,0.05
910.403,0.04
910.698,0.05
910.992,0.04
911.287,0.05
911.581,0.04
911.876,0.05
912.17,0.05
912.465,0.05
912.759,0.04
913.053,0.04
913.347,0.04
913.641,0.04
913.935,0.04
914.229,0.04
914.523,0.04
914.817,0.04
915.111,0.04
915.405,0.04
915.698,0.04
915.992,0.05
916.285,0.05
916.579,0.04
916.872,0.05
917.166,0.05
917.459,0.05
917.752,0.04
918.045,0.04
918.338,0.04
918.632,0.05
918.925,0.05
919.217,0.05
919.51,0.05
919.803,0.05
920.096,0.05
920.389,0.04
920.681,0.04
920.974,0.04
921.266,0.04
921.559,0.05
921.851,0.04
922.143,0.04
922.436,0.04
922.728,0.05
923.02,0.04
923.312,0.04
923.604,0.04
923.896,0.05
924.188,0.04
924.48,0.04
924.772,0.05
925.063,0.04
925.355,0.04
925.647,0.04
925.938,0.04
926.23,0.04
926.521,0.04
926.812,0.04
927.104,0.04
927.395,0.04
927.686,0.04
927.977,0.04
928.268,0.04
928.559,0.04
928.85,0.04
929.141,0.04
929.432,0.04
929.722,0.04
930.013,0.03
930.304,0.04
930.594,0.03
930.885,0.04
931.175,0.03
931.465,0.04
931.756,0.04
932.046,0.04
932.336,0.04
932.626,0.04
932.916,0.04
933.206,0.04
933.496,0.04
933.786,0.03
934.076,0.03
934.365,0.03
934.655,0.03
934.945,0.04
935.234,0.03
935.524,0.04
935.813,0.04
936.103,0.04
936.392,0.03
936.681,0.03
936.97,0.04
937.259,0.04
937.548,0.04
937.837,0.03
938.126,0.03
938.415,0.03
938.704,0.04
938.993,0.03
939.281,0.05
939.57,0.02
939.859,0.05
940.147,0.04
940.436,0.04
940.724,0.04
941.012,0.04
941.301,0.03
941.589,0.03
941.877,0.03
942.165,0.04
942.453,0.03
942.741,0.03
943.029,0.04
943.316,0.04
943.604,0.03
943.892,0.03
944.18,0.03
944.467,0.03
944.755,0.05
945.042,0.03
945.329,0.04
945.617,0.04
945.904,0.03
946.191,0.02
946.478,0.02
946.765,0.04
947.052,0.04
947.339,0.03
947.626,0.04
947.913,0.04
948.2,0.03
948.486,0.05
948.773,0.04
949.06,0.02
949.346,0.04
949.633,0.03
949.919,0.03
950.205,0.03
950.492,0.03
950.778,0.02
951.064,0.04
951.35,0.03
951.636,0.03
951.922,0.02
952.208,0.02
952.494,0.04
952.779,0.03
953.065,0.02
953.351,0.03
953.636,0.03
953.922,0.01
954.207,0.02
954.492,0.03
954.778,0.04
955.063,0.02
955.348,0.04
955.633,0.03
955.918,0.04
956.203,0.03
956.488,0.02
956.773,0.03
957.058,0.03
957.343,0.03
957.627,0.03
957.912,0.04
958.197,0.03
958.481,0.02
958.766,0.03
959.05,0.02
959.334,0.02
959.619,0.03
959.903,0.02
960.187,0.04
960.471,0.04
960.755,0.03
961.039,0.02
961.323,0.02
961.606,0.01
961.89,0.02
962.174,0.02
962.457,0
962.741,0.01
963.025,0.03
963.308,0.04
963.591,0.02
963.875,0.03
964.158,0.03
964.441,0.02
964.724,0.03
965.007,0.04
965.29,0.02
965.573,0.03
965.856,0.04
966.139,0.03
966.421,0.03
966.704,0.02
966.987,0.03
967.269,0.04
967.552,0.02
967.834,0.03
968.117,0.04
968.399,0.02
968.681,0.05
968.963,0.02
969.245,0.02
969.527,0.02
969.809,0.02
970.091,0
970.373,0.03
970.655,0.04
970.937,0.02
971.218,0.02
971.5,0.04
971.781,0.07
972.063,0.04
972.344,0.06
972.626,0.02
972.907,0.04
973.188,0.07
973.469,0.03
973.75,0
974.031,0.02
974.312,0.01
974.593,0.02
974.874,-0.01
975.155,0.01
975.435,0.01
975.716,0.02
975.997,0.02
976.277,0.01
976.558,0.02
976.838,0
977.118,0.04
977.399,0.04
977.679,0.02
977.959,0.05
978.239,0.05
978.519,0.03
978.799,0.03
979.079,0.03
979.359,0.02
979.638,0.04
979.918,0.02
980.198,-0.02
980.477,0.03
980.757,0.06
981.036,0.05
981.315,0.02
981.595,0.03
981.874,0.06
982.153,0.05
982.432,0.04
982.711,0
982.99,0.02
983.269,-0.01
983.548,-0.02
983.827,0.04
984.105,0.02
984.384,-0.03
984.663,-0.02
984.941,0.07
985.22,0.02
985.498,0
985.776,-0.03
986.055,0
986.333,0.1
986.611,-0.01
986.889,0.03
987.167,-0.02
987.445,-0.01
987.723,-0.01
988.001,0.09
988.279,0.07
988.556,0.04
988.834,0.06
989.112,0.01
989.389,0.16
989.666,0.05
989.944,-0.06
990.221,0.04
990.498,-0.02
990.776,0.01
991.053,0.02
991.33,-0.01
991.607,0.04
991.884,-0.11
992.161,-0.01
992.437,-0.02
992.714,0.03
992.991,0.03
993.267,-0.12
993.544,0.02
993.82,0.12
994.097,0.15
994.373,0.04
994.649,0.03
994.926,0.03
995.202,-0.05
995.478,-0.06
995.754,0.06
996.03,-0.06
996.306,0
996.582,0.07
996.857,-0.03
997.133,-0.1
997.409,0.06
997.684,-0.08
997.96,-0.02
998.235,-0.04
998.511,0.06
998.786,0.1
999.061,-0.04
999.336,0.19
999.611,0.09
999.886,0.21
1000.161,0.07
1000.436,-0.03
1000.711,0.13
1000.986,-0.04
1001.261,0.04
1001.535,0.06
1001.81,0
1002.085,-0.01
1002.359,0.12
1002.633,0.11
1002.908,-0.07
1003.182,0.01
1003.456,-0.11
1003.73,-0.02
1004.004,0.03
1004.278,-0.02
1004.552,0.18
1004.826,-0.05
1005.1,-0.08
1005.374,-0.01
1005.648,0.05
1005.921,-0.07
1006.195,0.1
1006.468,0.14
1006.742,-0.14
1007.015,0.28
1007.288,-0.05
1007.562,0.2
1007.835,-0.11
1008.108,0.09
1008.381,-0.07
1008.654,-0.03
1008.927,0.03
1009.2,0.04
1009.472,0.04
1009.745,0.06
1010.018,-0.01
1010.29,0.18
1010.563,0.09
1010.835,-0.03
1011.108,-0.03
1011.38,0.03
1011.652,0.13
1011.924,0.24
1012.197,0
1012.469,0.04
1012.741,-0.04
1013.013,-0.13
1013.284,0.07
1013.556,0.14
1013.828,0.12
1014.1,0.02
1014.371,0.13
1014.643,0.1
1014.914,-0.12
1015.186,-0.12
1015.457,-0.12
