Wavelength_(nm),TC_Transmission(%)
340.712,-126
341.091,-126
341.47,-126
341.849,74.82
342.229,-37.8
342.608,-174.85
342.987,98.92
343.366,-1336.59
343.745,158.83
344.124,8.36
344.503,28.2
344.881,247.71
345.26,-366.49
345.639,84.16
346.018,95.48
346.396,16.96
346.775,-166.29
347.154,326.15
347.532,95.9
347.911,71.44
348.289,6.46
348.668,109.03
349.046,5.82
349.425,16.27
349.803,42.9
350.181,40.62
350.56,35.78
350.938,47
351.316,47.81
351.694,27.99
352.072,30.89
352.45,46.72
352.828,44.13
353.206,33.12
353.584,32.41
353.962,37.5
354.34,49.34
354.718,29.24
355.095,33.28
355.473,35.84
355.851,37.2
356.229,36.89
356.606,37.2
356.984,22.18
357.361,19.99
357.739,27.16
358.116,33.03
358.494,37.81
358.871,35.85
359.248,31.48
359.626,38.92
360.003,31.78
360.38,20.46
360.757,33.99
361.134,32.58
361.511,30.37
361.888,26.35
362.265,25.07
362.642,21.92
363.019,38.09
363.396,35.34
363.773,27.86
364.15,31.36
364.527,26.14
364.903,35.32
365.28,28.93
365.657,27.82
366.033,39.14
366.41,38.4
366.786,42.7
367.163,31.99
367.539,39.41
367.915,33.15
368.292,26.82
368.668,45.09
369.044,30.68
369.421,22.18
369.797,39.77
370.173,27.49
370.549,39.27
370.925,37.31
371.301,34.39
371.677,36.44
372.053,26.9
372.429,31.91
372.805,29.94
373.181,41.67
373.556,41.81
373.932,30.63
374.308,29.05
374.683,34.04
375.059,32.52
375.435,32.43
375.81,31.16
376.186,30.68
376.561,29.92
376.936,24.82
377.312,23.3
377.687,17.35
378.062,20
378.438,13.97
378.813,16.43
379.188,15.25
379.563,8.91
379.938,11.11
380.313,6.59
380.688,10.14
381.063,11.4
381.438,9.14
381.813,9.29
382.188,7.06
382.563,7.05
382.937,5.39
383.312,4.9
383.687,3.19
384.061,4.98
384.436,4.14
384.81,3.84
385.185,4.11
385.559,4.28
385.934,2.38
386.308,2.38
386.682,2.15
387.057,2.56
387.431,1.84
387.805,2.03
388.179,1.39
388.553,1.64
388.927,1.4
389.301,1.07
389.675,1.15
390.049,1.31
390.423,1.05
390.797,1.01
391.171,0.61
391.545,0.71
391.919,0.83
392.292,0.71
392.666,0.76
393.04,0.56
393.413,0.41
393.787,0.39
394.16,0.32
394.534,0.68
394.907,0.47
395.28,0.37
395.654,0.48
396.027,0.38
396.4,0.35
396.773,0.38
397.147,0.28
397.52,0.34
397.893,0.27
398.266,0.31
398.639,0.23
399.012,0.38
399.385,0.33
399.757,0.34
400.13,0.38
400.503,0.38
400.876,0.33
401.248,0.21
401.621,0.34
401.994,0.4
402.366,0.33
402.739,0.35
403.111,0.4
403.484,0.4
403.856,0.3
404.229,0.38
404.601,0.34
404.973,0.26
405.345,0.25
405.718,0.32
406.09,0.31
406.462,0.24
406.834,0.25
407.206,0.38
407.578,0.28
407.95,0.26
408.322,0.28
408.693,0.27
409.065,0.23
409.437,0.22
409.809,0.31
410.18,0.19
410.552,0.19
410.924,0.24
411.295,0.18
411.667,0.32
412.038,0.29
412.41,0.33
412.781,0.18
413.152,0.3
413.524,0.15
413.895,0.27
414.266,0.2
414.637,0.24
415.008,0.21
415.38,0.25
415.751,0.17
416.122,0.2
416.493,0.14
416.863,0.17
417.234,0.28
417.605,0.18
417.976,0.18
418.347,0.18
418.717,0.14
419.088,0.1
419.459,0.15
419.829,0.16
420.2,0.2
420.57,0.17
420.941,0.17
421.311,0.19
421.682,0.2
422.052,0.16
422.422,0.19
422.792,0.24
423.163,0.2
423.533,0.24
423.903,0.24
424.273,0.22
424.643,0.22
425.013,0.18
425.383,0.17
425.753,0.28
426.123,0.28
426.492,0.18
426.862,0.32
427.232,0.17
427.602,0.3
427.971,0.29
428.341,0.22
428.71,0.26
429.08,0.29
429.449,0.3
429.819,0.14
430.188,0.29
430.557,0.29
430.927,0.34
431.296,0.33
431.665,0.54
432.034,0.24
432.403,0.58
432.772,0.3
433.142,0.46
433.51,0.44
433.879,0.36
434.248,0.66
434.617,0.73
434.986,0.71
435.355,0.66
435.724,0.66
436.092,0.79
436.461,1.08
436.829,0.65
437.198,0.51
437.567,1.06
437.935,0.9
438.303,0.97
438.672,0.96
439.04,0.48
439.408,1.03
439.777,1.69
440.145,0.77
440.513,0.74
440.881,1.01
441.249,0.97
441.617,0.97
441.985,1.26
442.353,1.03
442.721,1.11
443.089,1.25
443.457,1.15
443.825,0.85
444.192,1.08
444.56,1.05
444.928,1.42
445.295,1.57
445.663,1.38
446.03,1.04
446.398,1.45
446.765,1.38
447.133,1.39
447.5,1.69
447.867,0.92
448.235,0.93
448.602,1.51
448.969,1
449.336,1.05
449.703,1.79
450.07,1.22
450.437,1.32
450.804,1.53
451.171,1.3
451.538,1.56
451.905,1.36
452.271,1.15
452.638,1.31
453.005,0.9
453.372,1.54
453.738,1.05
454.105,1.46
454.471,0.95
454.838,0.98
455.204,0.52
455.57,0.97
455.937,1.09
456.303,1.03
456.669,0.95
457.036,1.49
457.402,1.03
457.768,1.4
458.134,1.03
458.5,1.2
458.866,1.06
459.232,1.14
459.598,1.12
459.964,1.24
460.329,0.65
460.695,1.14
461.061,0.96
461.427,0.93
461.792,0.49
462.158,0.84
462.523,1.08
462.889,1.14
463.254,1.2
463.62,1.25
463.985,0.58
464.35,1.76
464.716,0.93
465.081,1.69
465.446,0.93
465.811,1.29
466.176,1.09
466.541,0.78
466.906,1.05
467.271,1.16
467.636,1.73
468.001,1.1
468.366,0.98
468.731,1.13
469.096,1.55
469.46,1.37
469.825,1.12
470.19,0.96
470.554,0.72
470.919,1.05
471.283,1.13
471.648,0.94
472.012,1.15
472.376,1.15
472.741,1.22
473.105,1.13
473.469,1.01
473.833,1.04
474.197,0.78
474.561,0.97
474.925,0.58
475.289,0.59
475.653,0.94
476.017,0.51
476.381,0.53
476.745,0.73
477.109,1.01
477.472,0.73
477.836,0.97
478.2,0.3
478.563,0.72
478.927,0.38
479.29,0.78
479.654,0.66
480.017,0.66
480.381,0.41
480.744,0.91
481.107,0.5
481.471,0.59
481.834,0.73
482.197,0.61
482.56,0.59
482.923,0.48
483.286,0.73
483.649,0.55
484.012,0.19
484.375,0.95
484.738,0.62
485.1,0.68
485.463,0.4
485.826,0.33
486.188,0.81
486.551,0.55
486.914,0.42
487.276,0.81
487.639,0.94
488.001,0.55
488.363,0.4
488.726,0.42
489.088,0.63
489.45,0.69
489.812,0.04
490.175,0.67
490.537,0.52
490.899,0.55
491.261,0.7
491.623,0.49
491.985,0.71
492.347,0.87
492.708,0.25
493.07,0.47
493.432,0.58
493.794,0.5
494.155,0.51
494.517,0.39
494.879,0.52
495.24,0.52
495.602,0.43
495.963,0.39
496.324,0.32
496.686,0.45
497.047,0.33
497.408,0.59
497.769,0.69
498.131,0.27
498.492,0.53
498.853,0.18
499.214,0.49
499.575,0.38
499.936,0.55
500.297,0.33
500.658,0.37
501.018,0.25
501.379,0.61
501.74,0.36
502.1,0.44
502.461,0.49
502.822,0.34
503.182,0.43
503.543,0.51
503.903,0.53
504.263,0.25
504.624,0.45
504.984,0.28
505.344,0.27
505.705,0.57
506.065,0.46
506.425,0.27
506.785,0.19
507.145,0.41
507.505,0.29
507.865,0.38
508.225,0.5
508.585,0.38
508.944,0.34
509.304,0.46
509.664,0.26
510.023,0.51
510.383,0.38
510.743,0.27
511.102,0.2
511.462,0.31
511.821,0.3
512.18,0.31
512.54,0.24
512.899,0.12
513.258,0.26
513.618,0.37
513.977,0.33
514.336,0.37
514.695,0.25
515.054,0.2
515.413,0.32
515.772,0.35
516.131,0.45
516.49,0.26
516.848,0.39
517.207,0.24
517.566,0.21
517.924,0.21
518.283,0.16
518.642,0.29
519,0.11
519.359,0.17
519.717,0.25
520.075,0.41
520.434,0.19
520.792,0.32
521.15,0.33
521.508,0.15
521.867,0.08
522.225,0.25
522.583,0.28
522.941,0.3
523.299,0.3
523.657,0.17
524.014,0.2
524.372,0.3
524.73,0.21
525.088,0.14
525.445,0.16
525.803,0.22
526.161,0.28
526.518,0.18
526.876,0.25
527.233,0.19
527.591,0.21
527.948,0.16
528.305,0.22
528.662,0.29
529.02,0.32
529.377,0.24
529.734,0.24
530.091,0.26
530.448,0.21
530.805,0.15
531.162,0.21
531.519,0.18
531.876,0.26
532.233,0.27
532.589,0.22
532.946,0.21
533.303,0.27
533.659,0.35
534.016,0.28
534.372,0.15
534.729,0.19
535.085,0.2
535.442,0.22
535.798,0.29
536.154,0.24
536.511,0.33
536.867,0.26
537.223,0.28
537.579,0.27
537.935,0.31
538.291,0.3
538.647,0.28
539.003,0.32
539.359,0.24
539.715,0.28
540.07,0.38
540.426,0.33
540.782,0.22
541.137,0.14
541.493,0.29
541.849,0.19
542.204,0.31
542.56,0.26
542.915,0.3
543.27,0.32
543.626,0.26
543.981,0.36
544.336,0.37
544.691,0.26
545.046,0.39
545.401,0.33
545.756,0.37
546.111,0.26
546.466,0.28
546.821,0.44
547.176,0.16
547.531,0.36
547.886,0.29
548.24,0.39
548.595,0.26
548.95,0.38
549.304,0.24
549.659,0.33
550.013,0.35
550.367,0.34
550.722,0.25
551.076,0.37
551.43,0.37
551.785,0.27
552.139,0.33
552.493,0.28
552.847,0.34
553.201,0.26
553.555,0.32
553.909,0.38
554.263,0.35
554.617,0.31
554.971,0.29
555.324,0.37
555.678,0.34
556.032,0.19
556.385,0.45
556.739,0.37
557.092,0.32
557.446,0.37
557.799,0.41
558.153,0.36
558.506,0.35
558.859,0.29
559.212,0.4
559.566,0.38
559.919,0.36
560.272,0.45
560.625,0.43
560.978,0.44
561.331,0.26
561.684,0.34
562.037,0.41
562.389,0.43
562.742,0.38
563.095,0.36
563.448,0.39
563.8,0.38
564.153,0.43
564.505,0.36
564.858,0.35
565.21,0.37
565.562,0.44
565.915,0.48
566.267,0.44
566.619,0.46
566.972,0.52
567.324,0.43
567.676,0.47
568.028,0.42
568.38,0.46
568.732,0.45
569.084,0.41
569.435,0.38
569.787,0.4
570.139,0.48
570.491,0.48
570.842,0.55
571.194,0.49
571.546,0.54
571.897,0.57
572.249,0.53
572.6,0.45
572.951,0.54
573.303,0.55
573.654,0.57
574.005,0.54
574.356,0.49
574.707,0.51
575.059,0.45
575.41,0.5
575.761,0.64
576.112,0.53
576.462,0.65
576.813,0.67
577.164,0.56
577.515,0.68
577.865,0.59
578.216,0.63
578.567,0.58
578.917,0.62
579.268,0.59
579.618,0.67
579.969,0.67
580.319,0.71
580.669,0.73
581.02,0.66
581.37,0.67
581.72,0.7
582.07,0.69
582.42,0.71
582.77,0.72
583.12,0.7
583.47,0.75
583.82,0.75
584.17,0.8
584.52,0.76
584.869,0.77
585.219,0.84
585.569,0.81
585.918,0.83
586.268,0.81
586.617,0.8
586.967,0.82
587.316,0.78
587.666,0.91
588.015,0.92
588.364,0.98
588.713,0.95
589.062,0.9
589.412,0.92
589.761,0.92
590.11,0.94
590.459,0.97
590.807,1.06
591.156,1.03
591.505,1.05
591.854,0.94
592.203,1.05
592.551,1.06
592.9,1.08
593.248,1.03
593.597,1.13
593.945,1.06
594.294,1.19
594.642,1.12
594.991,1.17
595.339,1.1
595.687,1.11
596.035,1.15
596.383,1.12
596.732,1.16
597.08,1.26
597.428,1.16
597.775,1.28
598.123,1.23
598.471,1.26
598.819,1.33
599.167,1.23
599.514,1.31
599.862,1.33
600.21,1.34
600.557,1.35
600.905,1.33
601.252,1.3
601.6,1.39
601.947,1.32
602.294,1.44
602.641,1.42
602.989,1.47
603.336,1.51
603.683,1.45
604.03,1.48
604.377,1.42
604.724,1.52
605.071,1.55
605.418,1.61
605.765,1.6
606.111,1.5
606.458,1.6
606.805,1.59
607.151,1.58
607.498,1.67
607.844,1.62
608.191,1.76
608.537,1.68
608.884,1.73
609.23,1.67
609.576,1.71
609.922,1.7
610.269,1.73
610.615,1.85
610.961,1.83
611.307,1.87
611.653,1.78
611.999,1.86
612.345,1.89
612.69,1.92
613.036,1.92
613.382,1.89
613.728,1.93
614.073,2
614.419,1.92
614.764,2.05
615.11,2.11
615.455,2
615.801,2.08
616.146,2.14
616.491,2.1
616.837,2.13
617.182,2.14
617.527,2.21
617.872,2.18
618.217,2.12
618.562,2.17
618.907,2.21
619.252,2.24
619.597,2.25
619.941,2.25
620.286,2.26
620.631,2.35
620.975,2.3
621.32,2.41
621.665,2.37
622.009,2.44
622.354,2.42
622.698,2.48
623.042,2.52
623.387,2.48
623.731,2.5
624.075,2.54
624.419,2.54
624.763,2.56
625.107,2.52
625.451,2.56
625.795,2.64
626.139,2.57
626.483,2.57
626.827,2.67
627.171,2.7
627.514,2.75
627.858,2.74
628.201,2.74
628.545,2.76
628.888,2.79
629.232,2.78
629.575,2.87
629.919,2.92
630.262,2.87
630.605,2.95
630.948,2.92
631.292,2.93
631.635,2.99
631.978,2.93
632.321,3.05
632.664,3.03
633.007,3
633.349,3.07
633.692,3.13
634.035,3.16
634.378,3.05
634.72,3.09
635.063,3.15
635.405,3.23
635.748,3.26
636.09,3.26
636.433,3.26
636.775,3.27
637.117,3.35
637.46,3.35
637.802,3.3
638.144,3.39
638.486,3.44
638.828,3.34
639.17,3.51
639.512,3.45
639.854,3.53
640.196,3.49
640.538,3.53
640.879,3.51
641.221,3.55
641.563,3.57
641.904,3.62
642.246,3.68
642.587,3.77
642.929,3.72
643.27,3.7
643.611,3.75
643.953,3.72
644.294,3.77
644.635,3.83
644.976,3.91
645.317,3.73
645.658,3.94
645.999,3.87
646.34,3.9
646.681,3.94
647.022,4
647.363,3.92
647.703,4.07
648.044,4.06
648.385,3.97
648.725,4.07
649.066,4.05
649.406,4.13
649.747,4.14
650.087,4.21
650.428,4.28
650.768,4.26
651.108,4.17
651.448,4.32
651.788,4.22
652.128,4.29
652.468,4.33
652.808,4.39
653.148,4.33
653.488,4.4
653.828,4.49
654.168,4.38
654.507,4.53
654.847,4.48
655.187,4.57
655.526,4.61
655.866,4.58
656.205,4.59
656.545,4.57
656.884,4.64
657.223,4.74
657.563,4.76
657.902,4.75
658.241,4.74
658.58,4.83
658.919,4.76
659.258,4.87
659.597,4.84
659.936,4.84
660.275,4.88
660.614,5.01
660.952,4.92
661.291,4.96
661.63,5.02
661.968,5.04
662.307,4.97
662.645,5.07
662.984,5.12
663.322,5.18
663.661,5.22
663.999,5.14
664.337,5.24
664.675,5.29
665.013,5.16
665.351,5.28
665.689,5.26
666.027,5.31
666.365,5.3
666.703,5.42
667.041,5.43
667.379,5.41
667.717,5.46
668.054,5.47
668.392,5.55
668.729,5.53
669.067,5.61
669.404,5.6
669.742,5.58
670.079,5.56
670.417,5.58
670.754,5.67
671.091,5.67
671.428,5.74
671.765,5.79
672.102,5.71
672.439,5.73
672.776,5.71
673.113,5.88
673.45,5.88
673.787,5.88
674.124,5.91
674.46,5.86
674.797,6
675.134,6
675.47,5.94
675.807,6.06
676.143,6.09
676.479,6.08
676.816,6.15
677.152,6.21
677.488,6.21
677.824,6.22
678.161,6.21
678.497,6.22
678.833,6.26
679.169,6.25
679.505,6.4
679.84,6.37
680.176,6.34
680.512,6.41
680.848,6.4
681.183,6.4
681.519,6.45
681.855,6.58
682.19,6.56
682.525,6.47
682.861,6.55
683.196,6.57
683.532,6.6
683.867,6.65
684.202,6.68
684.537,6.6
684.872,6.66
685.207,6.65
685.542,6.78
685.877,6.78
686.212,6.78
686.547,6.8
686.882,6.83
687.216,6.87
687.551,6.92
687.886,6.9
688.22,7.03
688.555,7.02
688.889,7
689.224,7.04
689.558,7.1
689.892,7.19
690.227,7.13
690.561,7.19
690.895,7.18
691.229,7.18
691.563,7.24
691.897,7.14
692.231,7.23
692.565,7.13
692.899,7.28
693.233,7.29
693.566,7.33
693.9,7.36
694.234,7.34
694.567,7.32
694.901,7.32
695.234,7.46
695.568,7.5
695.901,7.44
696.234,7.58
696.567,7.54
696.901,7.57
697.234,7.58
697.567,7.59
697.9,7.6
698.233,7.65
698.566,7.64
698.899,7.64
699.232,7.68
699.565,7.71
699.897,7.68
700.23,7.8
700.563,7.75
700.895,7.74
701.228,7.76
701.56,7.62
701.893,7.9
702.225,7.91
702.557,7.87
702.89,7.91
703.222,7.85
703.554,7.92
703.886,7.93
704.218,8.06
704.55,7.96
704.882,8.01
705.214,8.16
705.546,7.97
705.878,8.05
706.209,8.15
706.541,8.08
706.873,8.11
707.204,8.17
707.536,8.18
707.867,8.17
708.199,8.13
708.53,8.19
708.861,8.17
709.193,8.28
709.524,8.25
709.855,8.28
710.186,8.27
710.517,8.27
710.848,8.24
711.179,8.28
711.51,8.32
711.841,8.28
712.172,8.43
712.502,8.33
712.833,8.34
713.164,8.34
713.494,8.4
713.825,8.43
714.155,8.31
714.486,8.46
714.816,8.44
715.146,8.56
715.476,8.54
715.807,8.58
716.137,8.55
716.467,8.5
716.797,8.67
717.127,8.56
717.457,8.66
717.787,8.7
718.117,8.78
718.446,8.55
718.776,8.6
719.106,8.59
719.435,8.74
719.765,8.67
720.095,8.75
720.424,8.71
720.753,8.79
721.083,8.58
721.412,8.72
721.741,8.77
722.07,8.78
722.4,8.86
722.729,8.76
723.058,8.92
723.387,8.95
723.716,8.94
724.044,8.95
724.373,9
724.702,8.95
725.031,9.04
725.359,9.03
725.688,8.99
726.017,8.94
726.345,9
726.674,9.01
727.002,8.93
727.33,9
727.659,8.99
727.987,8.94
728.315,9.12
728.643,9.04
728.971,8.96
729.299,9.09
729.627,9.08
729.955,9.12
730.283,9.15
730.611,9.17
730.938,9.24
731.266,9.21
731.594,9.26
731.921,9.28
732.249,9.3
732.576,9.33
732.904,9.32
733.231,9.39
733.558,9.39
733.886,9.38
734.213,9.47
734.54,9.43
734.867,9.35
735.194,9.35
735.521,9.46
735.848,9.46
736.175,9.56
736.502,9.72
736.829,9.59
737.155,9.75
737.482,9.78
737.809,9.77
738.135,9.74
738.462,9.8
738.788,9.84
739.115,9.85
739.441,9.92
739.767,10
740.093,10.01
740.42,10.06
740.746,10.13
741.072,10.19
741.398,10.36
741.724,10.37
742.05,10.45
742.376,10.36
742.701,10.62
743.027,10.7
743.353,10.71
743.679,10.79
744.004,10.98
744.33,11.22
744.655,11.29
744.981,11.19
745.306,11.37
745.631,11.58
745.957,11.7
746.282,11.79
746.607,12.04
746.932,12.21
747.257,12.4
747.582,12.49
747.907,12.67
748.232,12.72
748.557,13.05
748.881,13.25
749.206,13.32
749.531,13.62
749.855,13.95
750.18,14.17
750.505,14.29
750.829,14.68
751.153,14.99
751.478,15.23
751.802,15.59
752.126,15.96
752.45,16.37
752.775,16.61
753.099,17.04
753.423,17.34
753.747,17.77
754.07,18.14
754.394,18.63
754.718,19.12
755.042,19.73
755.366,20.02
755.689,20.44
756.013,21.17
756.336,21.62
756.66,22
756.983,22.59
757.307,23.33
757.63,23.89
757.953,24.46
758.276,25.3
758.599,25.75
758.922,26.57
759.245,27.11
759.568,27.63
759.891,28.66
760.214,29.2
760.537,29.99
760.86,30.82
761.183,31.59
761.505,32.36
761.828,33.42
762.15,34.19
762.473,34.93
762.795,35.85
763.118,36.85
763.44,37.67
763.762,38.21
764.084,38.96
764.407,39.79
764.729,40.55
765.051,41.51
765.373,42.38
765.695,43.29
766.016,43.91
766.338,44.66
766.66,46.19
766.982,46.99
767.303,47.71
767.625,48.61
767.947,49.75
768.268,50.19
768.589,51.01
768.911,51.81
769.232,52.69
769.553,53.55
769.875,54.27
770.196,54.79
770.517,55.18
770.838,56.19
771.159,57.34
771.48,58.29
771.801,58.87
772.122,59.1
772.442,60.51
772.763,60.7
773.084,61.87
773.404,62.09
773.725,62.78
774.045,63.49
774.366,64.09
774.686,64.48
775.007,65.61
775.327,65.77
775.647,66.08
775.967,66.9
776.287,67.39
776.607,68.1
776.927,69.03
777.247,69.3
777.567,70.6
777.887,70.32
778.207,70.57
778.527,71.38
778.846,71.87
779.166,72
779.485,71.98
779.805,73.4
780.124,73.62
780.444,73.76
780.763,74.19
781.082,74.59
781.402,75.52
781.721,75.19
782.04,75.54
782.359,76.25
782.678,76.15
782.997,76.91
783.316,77.4
783.635,78.09
783.953,78.25
784.272,78.36
784.591,79.3
784.909,79.14
785.228,79.86
785.546,79.57
785.865,80.31
786.183,80.24
786.501,80.52
786.82,81.44
787.138,80.94
787.456,81.16
787.774,81.43
788.092,82.12
788.41,82.15
788.728,82.27
789.046,82.78
789.364,82.37
789.682,83.46
789.999,83.33
790.317,84.2
790.635,84.06
790.952,83.77
791.27,84.16
791.587,84.34
791.905,84.68
792.222,84.67
792.539,85.15
792.856,84.77
793.173,84.85
793.491,85.64
793.808,85.62
794.125,85.33
794.442,85.57
794.758,86.33
795.075,86.43
795.392,85.92
795.709,86.35
796.025,86.95
796.342,86.66
796.658,86.56
796.975,86.71
797.291,87.29
797.608,87.17
797.924,87.12
798.24,87.36
798.557,87.59
798.873,86.93
799.189,87.03
799.505,87.53
799.821,87.23
800.137,87.44
800.453,87.26
800.768,87.62
801.084,87.71
801.4,88.12
801.715,88.44
802.031,88.41
802.347,88.24
802.662,88.67
802.977,89.05
803.293,88.48
803.608,88.48
803.923,88.59
804.238,88.47
804.554,88.11
804.869,88.51
805.184,88.87
805.499,88.86
805.814,88.39
806.128,88.31
806.443,88.99
806.758,88.7
807.073,88.64
807.387,89.29
807.702,89.5
808.016,89.37
808.331,89.02
808.645,89.78
808.959,89.4
809.274,88.89
809.588,89.42
809.902,90.15
810.216,89.5
810.53,89.32
810.844,88.64
811.158,89.41
811.472,89.39
811.786,89.36
812.1,88.89
812.413,88.93
812.727,89.71
813.041,89.83
813.354,89.2
813.668,88.05
813.981,88.89
814.294,89.09
814.608,88.98
814.921,88.63
815.234,88.95
815.547,88.54
815.86,89.07
816.173,89.04
816.486,89.45
816.799,89.19
817.112,89.02
817.425,88.62
817.738,88.67
818.05,88.96
818.363,88.94
818.676,88.91
818.988,89.04
819.301,88.62
819.613,88.82
819.925,88.95
820.238,88.25
820.55,88.29
820.862,88.2
821.174,88.22
821.486,87.75
821.798,88.14
822.11,88.28
822.422,88.25
822.734,88.97
823.046,88.25
823.357,88.76
823.669,88.32
823.981,88.23
824.292,87.7
824.604,88.41
824.915,87.46
825.226,87.34
825.538,86.97
825.849,87.32
826.16,87.77
826.471,87.91
826.782,87.15
827.093,87.86
827.404,88.2
827.715,87.09
828.026,86.92
828.337,86.75
828.648,87.26
828.958,87.29
829.269,87.64
829.58,87.36
829.89,86.8
830.2,86.73
830.511,86.92
830.821,86.7
831.131,86.77
831.442,86.87
831.752,86.98
832.062,86.91
832.372,86.41
832.682,86.2
832.992,86.16
833.302,86.5
833.612,85.81
833.921,86.37
834.231,85.95
834.541,85.6
834.85,85.76
835.16,85.71
835.469,86.09
835.779,85.81
836.088,85.67
836.397,85.64
836.707,85.82
837.016,85.26
837.325,85.18
837.634,84.16
837.943,85.02
838.252,85.62
838.561,84.92
838.87,85.55
839.178,85.33
839.487,85.69
839.796,85.7
840.104,84.55
840.413,83.88
840.721,84.48
841.03,83.93
841.338,84.6
841.647,84.81
841.955,84.55
842.263,84.51
842.571,84.86
842.879,84.24
843.187,83.56
843.495,83.66
843.803,83.23
844.111,83.27
844.419,83.34
844.726,83.36
845.034,83.53
845.342,83.19
845.649,83.48
845.957,83.88
846.264,83.56
846.572,83.98
846.879,84.09
847.186,83.39
847.493,83
847.801,82.87
848.108,83.05
848.415,82.57
848.722,83.06
849.029,82.31
849.335,82.85
849.642,82.5
849.949,82.61
850.256,82.1
850.562,82.57
850.869,82.54
851.175,82.73
851.482,83.15
851.788,83.33
852.095,82.73
852.401,81.03
852.707,81.87
853.013,81.66
853.319,81.7
853.625,81.72
853.931,82.13
854.237,81.61
854.543,80.79
854.849,81.71
855.155,81.17
855.46,81.61
855.766,81.46
856.072,80.67
856.377,81.06
856.683,81.48
856.988,81.7
857.293,81.99
857.599,82.06
857.904,81.79
858.209,81.48
858.514,81.59
858.819,80.97
859.124,81.23
859.429,80.02
859.734,80.43
860.039,80.03
860.343,80.39
860.648,80.74
860.953,81.27
861.257,81.23
861.562,80.81
861.866,80.1
862.171,80.17
862.475,79.75
862.779,79.56
863.084,79.36
863.388,79.42
863.692,79.97
863.996,80.49
864.3,79.76
864.604,80.12
864.908,79.75
865.211,80.03
865.515,80.84
865.819,80.87
866.123,80.4
866.426,81.52
866.73,80.59
867.033,80.3
867.336,79.64
867.64,80.26
867.943,80.11
868.246,80.17
868.549,80.55
868.853,80.55
869.156,80.53
869.459,80.08
869.762,80.47
870.064,80.17
870.367,79.37
870.67,80.36
870.973,79.55
871.275,80.55
871.578,79.89
871.88,80.68
872.183,80.03
872.485,80.3
872.787,80.09
873.09,79.86
873.392,79.61
873.694,79.95
873.996,80.57
874.298,80.32
874.6,80.13
874.902,79.17
875.204,78.96
875.506,79.72
875.808,79.79
876.109,79.81
876.411,79.89
876.712,79.39
877.014,79.44
877.315,79.14
877.617,78.27
877.918,78.69
878.219,79.63
878.521,80.05
878.822,80.5
879.123,79.94
879.424,80.28
879.725,79.58
880.026,79.54
880.326,79.73
880.627,79.87
880.928,80.02
881.229,80.83
881.529,80.29
881.83,80.84
882.13,80.98
882.431,81.14
882.731,80.73
883.031,80.49
883.332,80.41
883.632,80.64
883.932,81.24
884.232,80.77
884.532,81.05
884.832,80.26
885.132,80.76
885.432,80.41
885.732,80.77
886.031,81.68
886.331,80.54
886.63,80.2
886.93,80.54
887.229,80.51
887.529,81.07
887.828,81.68
888.128,80.5
888.427,81.27
888.726,81.49
889.025,82.11
889.324,82.01
889.623,81.44
889.922,82.61
890.221,81.48
890.52,81.15
890.818,80.73
891.117,82.15
891.416,82.01
891.714,80.4
892.013,81.23
892.311,81.68
892.61,80.66
892.908,81.54
893.206,81.83
893.505,82.07
893.803,82.68
894.101,81.59
894.399,82.03
894.697,82.78
894.995,81.54
895.293,80.67
895.59,81.11
895.888,81.72
896.186,82.04
896.483,82.16
896.781,81.46
897.078,82.16
897.376,81.57
897.673,81.92
897.971,83.13
898.268,83.56
898.565,83.02
898.862,82.5
899.159,82.67
899.456,82.8
899.753,82.51
900.05,81.59
900.347,82.44
900.644,82.96
900.94,83.96
901.237,83.29
901.534,83.56
901.83,83.4
902.126,82.74
902.423,83.1
902.719,83.65
903.016,83.77
903.312,83.54
903.608,83.64
903.904,83.71
904.2,84.35
904.496,84.35
904.792,83.39
905.088,84.12
905.384,84.88
905.679,84.81
905.975,83.32
906.271,83.89
906.566,84.25
906.862,84.22
907.157,84.4
907.452,84.04
907.748,84.81
908.043,85.76
908.338,85.03
908.633,85.26
908.928,84.86
909.223,85.46
909.518,84.61
909.813,83.78
910.108,84.84
910.403,84.83
910.698,84.43
910.992,85.17
911.287,85.65
911.581,85.15
911.876,85.41
912.17,85.84
912.465,85.52
912.759,86.19
913.053,86.75
913.347,85.6
913.641,85.45
913.935,85.58
914.229,87.04
914.523,84.96
914.817,86.59
915.111,87.35
915.405,87.13
915.698,85.76
915.992,87.59
916.285,87.06
916.579,87.91
916.872,87.15
917.166,86.92
917.459,87.53
917.752,85.63
918.045,86.75
918.338,87.57
918.632,87.28
918.925,87.23
919.217,86.59
919.51,86.91
919.803,86.59
920.096,87.38
920.389,88.74
920.681,88.67
920.974,87.97
921.266,88.66
921.559,88.3
921.851,86.74
922.143,87.79
922.436,87.22
922.728,88.44
923.02,87.29
923.312,89.34
923.604,88.36
923.896,87.41
924.188,87.87
924.48,89
924.772,87.23
925.063,87.2
925.355,88.05
925.647,88.93
925.938,88.8
926.23,87.79
926.521,88.99
926.812,88.52
927.104,90.25
927.395,89.33
927.686,89.3
927.977,89.45
928.268,89.29
928.559,90.13
928.85,89.51
929.141,89.37
929.432,89.96
929.722,89.29
930.013,88.76
930.304,89.11
930.594,90.08
930.885,89.35
931.175,89.86
931.465,90.68
931.756,89.66
932.046,90.92
932.336,91.42
932.626,90.94
932.916,90.95
933.206,91.43
933.496,91
933.786,90.63
934.076,90.83
934.365,90.78
934.655,91.93
934.945,91.83
935.234,91.33
935.524,91.46
935.813,91.19
936.103,91.5
936.392,90.58
936.681,91.16
936.97,91.22
937.259,91.32
937.548,93.87
937.837,91.39
938.126,91.38
938.415,91.24
938.704,90.6
938.993,93.1
939.281,90.48
939.57,92.89
939.859,89.89
940.147,91.82
940.436,92.67
940.724,92.69
941.012,91.78
941.301,96.84
941.589,90.02
941.877,91.61
942.165,91.94
942.453,90.49
942.741,90.2
943.029,92.92
943.316,92.75
943.604,92.34
943.892,91.33
944.18,93.11
944.467,92.58
944.755,91.21
945.042,92.74
945.329,90.27
945.617,92.62
945.904,93.03
946.191,91.94
946.478,93.69
946.765,91.91
947.052,91.82
947.339,93.89
947.626,91.1
947.913,93.22
948.2,92.02
948.486,94.38
948.773,91.83
949.06,92.87
949.346,90.86
949.633,93.26
949.919,92.49
950.205,92.61
950.492,94.13
950.778,91.75
951.064,93.96
951.35,90.78
951.636,93.15
951.922,92.28
952.208,92.82
952.494,92.29
952.779,93.21
953.065,95.73
953.351,92.58
953.636,92.99
953.922,90.35
954.207,94.62
954.492,92.35
954.778,92.2
955.063,95.68
955.348,95.42
955.633,95.64
955.918,92.59
956.203,96.36
956.488,96.56
956.773,96.13
957.058,92.13
957.343,93.88
957.627,95.09
957.912,93.95
958.197,96.8
958.481,89.66
958.766,94.62
959.05,93.66
959.334,95.19
959.619,94.21
959.903,90.78
960.187,92.39
960.471,90.93
960.755,93.65
961.039,93.58
961.323,93.77
961.606,91.13
961.89,94.59
962.174,97.77
962.457,95.7
962.741,93.7
963.025,96.65
963.308,92.78
963.591,94.91
963.875,91.71
964.158,93.61
964.441,94.8
964.724,94.63
965.007,91.61
965.29,91.7
965.573,92.64
965.856,89.9
966.139,93.9
966.421,94.68
966.704,92.82
966.987,91.85
967.269,91.94
967.552,93.39
967.834,90.39
968.117,91.54
968.399,96.02
968.681,96.45
968.963,91.56
969.245,95.19
969.527,92.82
969.809,90.49
970.091,93.54
970.373,99.16
970.655,94.75
970.937,93.72
971.218,92.12
971.5,92.15
971.781,95.63
972.063,89.24
972.344,97.82
972.626,91.67
972.907,91.04
973.188,92.86
973.469,96.15
973.75,95.86
974.031,87.95
974.312,86.34
974.593,90.86
974.874,89.53
975.155,89.45
975.435,91.13
975.716,94.19
975.997,89.63
976.277,84.68
976.558,88.95
976.838,93.48
977.118,92.48
977.399,92.02
977.679,94.52
977.959,94.48
978.239,87.32
978.519,96.59
978.799,90.77
979.079,85.52
979.359,100.35
979.638,94.61
979.918,92.46
980.198,98.32
980.477,92.96
980.757,93.14
981.036,86.73
981.315,100.76
981.595,92.77
981.874,98.41
982.153,94.83
982.432,95.1
982.711,94.39
982.99,90.7
983.269,92.28
983.548,97.66
983.827,94.4
984.105,88.53
984.384,94.75
984.663,83.67
984.941,94.27
985.22,82.15
985.498,83.03
985.776,92.86
986.055,86.45
986.333,82.16
986.611,83.83
986.889,76.92
987.167,75.23
987.445,93.09
987.723,79.88
988.001,103.85
988.279,90.54
988.556,84.88
988.834,89.49
989.112,79.1
989.389,80.78
989.666,69.11
989.944,66.62
990.221,81.18
990.498,80.51
990.776,88.87
991.053,84.11
991.33,108.48
991.607,103.03
991.884,115.49
992.161,103.33
992.437,84.82
992.714,87.08
992.991,80.21
993.267,79.88
993.544,90.92
993.82,85.32
994.097,73.42
994.373,93.12
994.649,66.71
994.926,73.55
995.202,65.85
995.478,47.57
995.754,78.17
996.03,75.2
996.306,86.18
996.582,85.67
996.857,58.5
997.133,92.25
997.409,51.51
997.684,83.11
997.96,84.86
998.235,79.5
998.511,85.64
998.786,62.31
999.061,85.2
999.336,88.97
999.611,45.01
999.886,75.64
1000.161,69.76
1000.436,65.78
1000.711,63.88
1000.986,77.96
1001.261,64.92
1001.535,83.87
1001.81,74.02
1002.085,73.42
1002.359,65.73
1002.633,79.96
1002.908,86.02
1003.182,101.22
1003.456,98.06
1003.73,71.56
1004.004,90.24
1004.278,56.46
1004.552,76.2
1004.826,48.67
1005.1,96.27
1005.374,50.64
1005.648,91.99
1005.921,72.03
1006.195,61
1006.468,58.85
1006.742,71.24
1007.015,65.79
1007.288,68.37
1007.562,104.84
1007.835,82.77
1008.108,82.09
1008.381,58.48
1008.654,65.23
1008.927,79.02
1009.2,71.16
1009.472,77.68
1009.745,82.85
1010.018,85.91
1010.29,71.47
1010.563,81.47
1010.835,65.37
1011.108,81.2
1011.38,75.26
1011.652,49.46
1011.924,76.07
1012.197,82.23
1012.469,84.12
1012.741,54.53
1013.013,57.11
1013.284,72.29
1013.556,69.01
1013.828,61.4
1014.1,109.42
1014.371,84.09
1014.643,98.97
1014.914,64.15
1015.186,64.15
1015.457,64.15
