Wavelength(nm),QDs_PL
340.712,8.61
341.091,8.61
341.47,8.61
341.849,-3.4
342.229,5.91
342.608,1.75
342.987,14
343.366,5.42
343.745,-46.78
344.124,14.98
344.503,5.42
344.881,-31.34
345.26,5.42
345.639,-20.31
346.018,-10.51
346.396,9.83
346.775,-3.65
347.154,13.26
347.532,13.26
347.911,29.68
348.289,-0.46
348.668,-29.13
349.046,5.67
349.425,2.24
349.803,-0.21
350.181,4.69
350.56,-12.47
350.938,25.76
351.316,19.88
351.694,34.83
352.072,9.34
352.45,7.87
352.828,33.36
353.206,-0.7
353.584,9.1
353.962,-9.53
354.34,1.75
354.718,15.23
355.095,35.81
355.473,-7.57
355.851,17.68
356.229,5.91
356.606,17.68
356.984,-0.7
357.361,-28.89
357.739,2.24
358.116,37.77
358.494,4.93
358.871,20.13
359.248,34.83
359.626,3.95
360.003,12.53
360.38,1.26
360.757,-5.61
361.134,21.6
361.511,9.59
361.888,13.02
362.265,1.26
362.642,-9.28
363.019,-22.76
363.396,-23.25
363.773,8.85
364.15,28.95
364.527,1.99
364.903,11.55
365.28,23.31
365.657,1.5
366.033,-4.63
366.41,26.25
366.786,8.85
367.163,-18.35
367.539,-0.46
367.915,12.77
368.292,3.22
368.668,18.9
369.044,41.45
369.421,17.43
369.797,6.4
370.173,7.38
370.549,-13.45
370.925,-13.45
371.301,11.79
371.677,15.23
372.053,-9.28
372.429,8.61
372.805,15.47
373.181,4.69
373.556,18.41
373.932,5.42
374.308,1.5
374.683,22.09
375.059,-19.58
375.435,27.97
375.81,-36.49
376.186,17.19
376.561,-17.12
376.936,11.55
377.312,-25.21
377.687,29.44
378.062,6.65
378.438,-23.25
378.813,-6.34
379.188,16.45
379.563,7.87
379.938,-11
380.313,-0.21
380.688,-7.08
381.063,62.52
381.438,23.31
381.813,0.52
382.188,22.33
382.563,-12.96
382.937,9.1
383.312,19.64
383.687,7.38
384.061,21.35
384.436,18.17
384.81,2.97
385.185,19.15
385.559,-12.47
385.934,13.26
386.308,21.6
386.682,11.79
387.057,25.03
387.431,-21.05
387.805,-11.49
388.179,14.98
388.553,-8.79
388.927,-11.98
389.301,-19.09
389.675,10.81
390.049,8.61
390.423,18.66
390.797,-9.28
391.171,6.16
391.545,12.04
391.919,2.24
392.292,1.5
392.666,13.75
393.04,-15.16
393.413,19.39
393.787,-12.96
394.16,37.77
394.534,-6.34
394.907,16.94
395.28,1.5
395.654,22.58
396.027,15.47
396.4,30.66
396.773,-21.05
397.147,2.97
397.52,-9.04
397.893,1.01
398.266,4.44
398.639,5.42
399.012,4.44
399.385,0.52
399.757,50.76
400.13,-47.76
400.503,25.76
400.876,14
401.248,16.45
401.621,16.45
401.994,14
402.366,19.15
402.739,19.39
403.111,63.75
403.484,80.9
403.856,93.16
404.229,77.96
404.601,55.66
404.973,40.22
405.345,37.53
405.718,7.87
406.09,-10.26
406.462,-5.36
406.834,-8.06
407.206,-22.52
407.578,-16.14
407.95,46.84
408.322,21.84
408.693,-5.61
409.065,-14.67
409.437,0.52
409.809,28.95
410.18,9.83
410.552,-9.04
410.924,43.16
411.295,2.73
411.667,26.5
412.038,-20.8
412.41,19.15
412.781,23.8
413.152,26.99
413.524,7.14
413.895,-4.63
414.266,-1.44
414.637,3.71
415.008,-22.76
415.38,-9.28
415.751,21.6
416.122,54.44
416.493,30.66
416.863,3.22
417.234,37.04
417.605,-1.19
417.976,35.57
418.347,18.66
418.717,2.24
419.088,-22.52
419.459,7.14
419.829,-10.51
420.2,27.23
420.57,-10.02
420.941,2.24
421.311,2.73
421.682,12.53
422.052,1.99
422.422,11.3
422.792,-3.89
423.163,39.73
423.533,4.44
423.903,4.69
424.273,40.96
424.643,9.1
425.013,-1.19
425.383,-10.51
425.753,12.28
426.123,-36.24
426.492,3.22
426.862,15.23
427.232,-20.31
427.602,-26.19
427.971,18.66
428.341,4.69
428.71,11.3
429.08,-6.34
429.449,25.03
429.819,36.79
430.188,9.59
430.557,11.06
430.927,41.94
431.296,11.79
431.665,2.48
432.034,21.35
432.403,14.49
432.772,-55.11
433.142,-23.5
433.51,5.42
433.879,37.53
434.248,-11.49
434.617,-10.26
434.986,-30.85
435.355,2.73
435.724,34.34
436.092,17.68
436.461,36.79
436.829,26.74
437.198,-7.81
437.567,-52.66
437.935,-9.77
438.303,35.57
438.672,2.73
439.04,-8.55
439.408,19.88
439.777,10.08
440.145,14.74
440.513,0.28
440.881,-5.12
441.249,41.45
441.617,14.49
441.985,5.42
442.353,-28.64
442.721,7.38
443.089,14
443.457,6.89
443.825,34.83
444.192,5.42
444.56,5.67
444.928,-11.98
445.295,5.42
445.663,10.08
446.03,14
446.398,-14.43
446.765,66.69
447.133,-8.55
447.5,-2.91
447.867,-0.95
448.235,22.82
448.602,-26.44
448.969,1.01
449.336,21.84
449.703,1.99
450.07,21.35
450.437,-19.58
450.804,-3.16
451.171,22.33
451.538,8.61
451.905,-7.32
452.271,13.02
452.638,28.21
453.005,-17.86
453.372,0.03
453.738,14.74
454.105,2.97
454.471,-2.67
454.838,41.94
455.204,-6.83
455.57,-13.94
455.937,13.26
456.303,31.89
456.669,11.79
457.036,37.28
457.402,19.64
457.768,8.85
458.134,23.8
458.5,12.04
458.866,9.1
459.232,39.24
459.598,-21.78
459.964,-31.09
460.329,-19.58
460.695,24.05
461.061,-10.51
461.427,4.69
461.792,0.28
462.158,-11
462.523,-11
462.889,26.25
463.254,12.28
463.62,-0.46
463.985,-10.02
464.35,18.17
464.716,27.23
465.081,29.44
465.446,15.72
465.811,13.75
466.176,44.39
466.541,39.49
466.906,49.29
467.271,-3.16
467.636,1.99
468.001,-16.14
468.366,21.6
468.731,17.92
469.096,21.11
469.46,-8.55
469.825,32.63
470.19,39.73
470.554,8.36
470.919,14.74
471.283,6.65
471.648,23.8
472.012,44.14
472.376,0.52
472.741,41.45
473.105,23.31
473.469,-8.3
473.833,-8.55
474.197,8.61
474.561,9.1
474.925,3.71
475.289,9.34
475.653,23.8
476.017,10.57
476.381,42.92
476.745,48.31
477.109,28.95
477.472,50.76
477.836,13.26
478.2,5.91
478.563,-17.86
478.927,14.98
479.29,14.98
479.654,40.96
480.017,22.09
480.381,5.67
480.744,16.21
481.107,21.84
481.471,13.26
481.834,-12.22
482.197,29.44
482.56,32.14
482.923,-33.79
483.286,34.59
483.649,-1.93
484.012,5.91
484.375,26.74
484.738,34.34
485.1,-21.78
485.463,11.79
485.826,41.94
486.188,0.03
486.551,12.77
486.914,8.61
487.276,-13.45
487.639,26.99
488.001,4.2
488.363,25.03
488.726,26.74
489.088,-4.63
489.45,17.43
489.812,12.28
490.175,2.24
490.537,-10.51
490.899,3.95
491.261,18.41
491.623,11.55
491.985,33.36
492.347,2.48
492.708,-2.91
493.07,22.82
493.432,2.24
493.794,-4.63
494.155,-9.53
494.517,34.83
494.879,43.65
495.24,28.7
495.602,-13.2
495.963,31.89
496.324,30.17
496.686,9.1
497.047,-15.65
497.408,-5.12
497.769,43.41
498.131,64.73
498.492,20.62
498.853,9.34
499.214,24.54
499.575,-3.4
499.936,-34.28
500.297,-20.31
500.658,10.57
501.018,-10.02
501.379,44.39
501.74,17.92
502.1,33.36
502.461,52.23
502.822,42.43
503.182,16.21
503.543,29.93
503.903,37.77
504.263,29.44
504.624,8.12
504.984,24.54
505.344,28.95
505.705,-10.75
506.065,40.71
506.425,24.29
506.785,66.94
507.145,25.52
507.505,37.28
507.865,27.48
508.225,15.47
508.585,33.61
508.944,42.92
509.304,34.34
509.664,10.81
510.023,-4.14
510.383,46.1
510.743,7.38
511.102,13.75
511.462,37.04
511.821,16.45
512.18,24.54
512.54,29.19
512.899,35.32
513.258,24.05
513.618,43.41
513.977,40.22
514.336,29.68
514.695,39.49
515.054,74.04
515.413,73.31
515.772,55.66
516.131,59.09
516.49,42.43
516.848,51.74
517.207,25.27
517.566,75.76
517.924,51.99
518.283,6.89
518.642,66.69
519,56.15
519.359,69.39
519.717,95.36
520.075,43.65
520.434,46.1
520.792,63.99
521.15,37.77
521.508,25.03
521.867,69.14
522.225,53.7
522.583,59.83
522.941,54.44
523.299,54.93
523.657,66.2
524.014,77.23
524.372,78.45
524.73,87.77
525.088,100.51
525.445,112.27
525.803,83.11
526.161,98.3
526.518,105.17
526.876,107.62
527.233,160.55
527.591,150.75
527.948,171.83
528.305,249.76
528.662,274.51
529.02,262.75
529.377,331.86
529.734,354.65
530.091,407.59
530.448,490.18
530.805,549.48
531.162,671.29
531.519,749.95
531.876,890.38
532.233,1051.39
532.589,1259.22
532.946,1487.38
533.303,1717.01
533.659,2013.8
534.016,2355.92
534.372,2716.18
534.729,3126.67
535.085,3569.28
535.442,4165.29
535.798,4793.17
536.154,5561.23
536.511,6315.81
536.867,7106.91
537.223,8062.2
537.579,9245.41
537.935,10366.87
538.291,11730.21
538.647,12806.82
539.003,14435.33
539.359,15758.72
539.715,17415.17
540.07,19228.22
540.426,20921.92
540.782,22677.63
541.137,24575.47
541.493,26270.64
541.849,28277.55
542.204,29933.02
542.56,31802.92
542.915,33740.96
543.27,35385.4
543.626,37208.99
543.981,38675.02
544.336,40379.01
544.691,41583.3
545.046,42783.18
545.401,43909.29
545.756,45389.53
546.111,46256.35
546.466,47041.81
546.821,48176.75
547.176,48518.62
547.531,49376.38
547.886,49554.55
548.24,50050.33
548.595,49966.27
548.95,50322.61
549.304,50095.67
549.659,50491.46
550.013,50297.12
550.367,50046.9
550.722,49621.21
551.076,49535.19
551.43,48730.61
551.785,48490.93
552.139,48510.29
552.493,47808.65
552.847,47269.98
553.201,46195.09
553.555,45841.2
553.909,45524.81
554.263,44403.85
554.617,43772.78
554.971,43238.52
555.324,42050.65
555.678,41454.64
556.032,40685.6
556.385,39761.92
556.739,38930.87
557.092,38292.46
557.446,37453.33
557.799,36643.36
558.153,36007.89
558.506,35457.45
558.859,34164.45
559.212,33847.32
559.566,32818.75
559.919,32266.85
560.272,31438.01
560.625,30719.45
560.978,30386.4
561.331,29325.48
561.684,28768.43
562.037,28134.18
562.389,27566.34
562.742,26879.4
563.095,26294.9
563.448,25717.76
563.8,25160.46
564.153,24642.38
564.505,23995.63
564.858,23515.53
565.21,23118.76
565.562,22387.46
565.915,21962.01
566.267,21394.42
566.619,21195.18
566.972,20797.42
567.324,20241.84
567.676,19882.57
568.028,19351.25
568.38,19118.67
568.732,18721.9
569.084,18438.84
569.435,18007.76
569.787,17737.44
570.139,17271.8
570.491,17025.75
570.842,16807.39
571.194,16354
571.546,16126.33
571.897,15910.91
572.249,15575.65
572.6,15329.84
572.951,15065.41
573.303,15066.64
573.654,14564.97
574.005,14390.72
574.356,14192.46
574.707,13921.16
575.059,13844.95
575.41,13407.49
575.761,13344.02
576.112,13224.91
576.462,13029.1
576.813,12773.98
577.164,12698.98
577.515,12564.19
577.865,12399.26
578.216,12304.91
578.567,11988.76
578.917,11768.2
579.268,11924.8
579.618,11581.7
579.969,11445.43
580.319,11316.04
580.669,11212.13
581.02,11076.6
581.37,11007.49
581.72,10693.8
582.07,10726.15
582.42,10682.03
582.77,10681.54
583.12,10386.96
583.47,10232.08
583.82,10146.55
584.17,10032.34
584.52,10053.91
584.869,9823.54
585.219,9813.49
585.569,9772.81
585.918,9646.11
586.268,9602.98
586.617,9615.96
586.967,9433.14
587.316,9430.69
587.666,9334.62
588.015,9211.84
588.364,9205.47
588.713,9148.85
589.062,9055.24
589.412,8889.57
589.761,8818.74
590.11,8804.04
590.459,8801.1
590.807,8729.04
591.156,8618.27
591.505,8597.44
591.854,8553.82
592.203,8494.51
592.551,8398.69
592.9,8478.82
593.248,8234.24
593.597,8284.97
593.945,8220.52
594.294,8246.74
594.642,8124.45
594.991,8162.19
595.339,8054.6
595.687,8013.68
596.035,7815.66
596.383,8024.7
596.732,7909.28
597.08,7757.82
597.428,7839.67
597.775,7755.37
598.123,7774.48
598.471,7746.3
598.819,7757.08
599.167,7662.73
599.514,7670.08
599.862,7631.36
600.21,7621.07
600.557,7607.59
600.905,7554.65
601.252,7432.61
601.6,7512.01
601.947,7464.71
602.294,7437.26
602.641,7446.82
602.989,7317.91
603.336,7352.22
603.683,7421.33
604.03,7328.7
604.377,7284.58
604.724,7276.74
605.071,7247.09
605.418,7174.3
605.765,7226.26
606.111,7189.74
606.458,7155.43
606.805,7130.68
607.151,7166.7
607.498,7169.15
607.844,7068.92
608.191,7063.28
608.537,7016.23
608.884,7067.69
609.23,6996.87
609.576,7067.2
609.922,6997.6
610.269,6924.33
610.615,6953.49
610.961,6936.33
611.307,6861.1
611.653,6899.33
611.999,6860.12
612.345,6866.98
612.69,6865.75
613.036,6841.98
613.382,6766.5
613.728,6823.36
614.073,6779
614.419,6726.8
614.764,6668.47
615.11,6702.29
615.455,6717.48
615.801,6690.53
616.146,6636.61
616.491,6581.47
616.837,6566.27
617.182,6578.28
617.527,6565.54
617.872,6547.89
618.217,6515.05
618.562,6514.07
618.907,6456.24
619.252,6490.79
619.597,6461.38
619.941,6420.46
620.286,6467.76
620.631,6406.24
620.975,6399.87
621.32,6348.65
621.665,6283.95
622.009,6433.69
622.354,6301.84
622.698,6348.16
623.042,6251.36
623.387,6300.37
623.731,6189.11
624.075,6254.05
624.419,6140.83
624.763,6146.46
625.107,6123.67
625.451,6057.99
625.795,6023.93
626.139,6048.93
626.483,6026.38
626.827,5947.71
627.171,6002.12
627.514,5963.15
627.858,5890.61
628.201,5939.38
628.545,5924.92
628.888,5852.87
629.232,5781.55
629.575,5803.36
629.919,5683.03
630.262,5816.11
630.605,5772.48
630.948,5707.78
631.292,5639.9
631.635,5618.82
631.978,5615.39
632.321,5644.55
632.664,5642.1
633.007,5601.42
633.349,5531.82
633.692,5545.3
634.035,5451.19
634.378,5479.62
634.72,5497.27
635.063,5404.87
635.405,5428.65
635.748,5336.25
636.09,5252.93
636.433,5266.16
636.775,5326.94
637.117,5245.09
637.46,5184.55
637.802,5236.02
638.144,5133.33
638.486,5163.97
638.828,5169.85
639.17,5112.5
639.512,5103.19
639.854,4995.85
640.196,5001.73
640.538,5038.49
640.879,4979.43
641.221,4998.3
641.563,4964.48
641.904,4911.54
642.246,4867.67
642.587,4850.76
642.929,4826.01
643.27,4772.83
643.611,4814.74
643.953,4762.54
644.294,4794.64
644.635,4751.02
644.976,4709.11
645.317,4676.76
645.658,4628.48
645.999,4677.99
646.34,4652.5
646.681,4579.71
647.022,4603.48
647.363,4531.92
647.703,4517.71
648.044,4503.49
648.385,4429.24
648.725,4503.98
649.066,4422.62
649.406,4422.87
649.747,4391.99
650.087,4373.61
650.428,4360.62
650.768,4380.71
651.108,4267
651.448,4269.94
651.788,4228.28
652.128,4271.65
652.468,4212.35
652.808,4184.16
653.148,4113.83
653.488,4128.78
653.828,4156.72
654.168,4103.29
654.507,4110.89
654.847,4070.69
655.187,4110.64
655.526,4027.07
655.866,4043.98
656.205,4029.03
656.545,4026.09
656.884,3929.53
657.223,3931.25
657.563,3964.33
657.902,3875.13
658.241,3851.11
658.58,3869.98
658.919,3817.78
659.258,3804.55
659.597,3739.11
659.936,3800.87
660.275,3714.85
660.614,3728.57
660.952,3695.49
661.291,3667.79
661.63,3652.36
661.968,3690.1
662.307,3587.66
662.645,3601.13
662.984,3566.82
663.322,3566.58
663.661,3555.8
663.999,3542.81
664.337,3506.78
664.675,3511.19
665.013,3431.05
665.351,3467.32
665.689,3448.94
666.027,3436.69
666.365,3463.89
666.703,3406.06
667.041,3317.34
667.379,3374.44
667.717,3310.97
668.054,3359.74
668.392,3334.5
668.729,3278.62
669.067,3279.35
669.404,3259.01
669.742,3240.63
670.079,3209.26
670.417,3219.07
670.754,3191.37
671.091,3164.66
671.428,3171.28
671.765,3141.87
672.102,3155.59
672.439,3136.48
672.776,3093.59
673.113,3067.37
673.45,3062.71
673.787,3068.35
674.124,3057.32
674.46,3006.83
674.797,3008.79
675.134,2976.2
675.47,2986.74
675.807,2949.98
676.143,2975.22
676.479,2889.93
676.816,2896.79
677.152,2870.57
677.488,2833.57
677.824,2822.05
678.161,2784.8
678.497,2840.43
678.833,2762.74
679.169,2768.38
679.505,2754.41
679.84,2762.98
680.176,2689.71
680.512,2715.44
680.848,2687.75
681.183,2695.1
681.519,2669.12
681.855,2648.78
682.19,2668.63
682.525,2577.46
682.861,2584.57
683.196,2568.89
683.532,2572.32
683.867,2514.24
684.202,2508.84
684.537,2526.98
684.872,2522.81
685.207,2547.08
685.542,2490.46
685.877,2467.43
686.212,2400.77
686.547,2397.58
686.882,2423.07
687.216,2378.96
687.551,2369.15
687.886,2337.29
688.22,2321.61
688.555,2344.89
688.889,2312.79
689.224,2274.06
689.558,2295.88
689.892,2258.13
690.227,2284.6
690.561,2256.42
690.895,2168.68
691.229,2159.86
691.563,2155.94
691.897,2192.7
692.231,2168.68
692.565,2186.57
692.899,2173.09
693.233,2157.65
693.566,2126.04
693.9,2087.32
694.234,2084.38
694.567,2108.88
694.901,2079.23
695.234,2060.61
695.568,2016.49
695.901,2004.48
696.234,2047.86
696.567,1990.02
696.901,1982.18
697.234,1972.62
697.567,1997.62
697.9,1960.37
698.233,1953.02
698.566,1928.02
698.899,1936.11
699.232,1874.35
699.565,1874.35
699.897,1843.23
700.23,1851.31
700.563,1789.31
700.895,1815.78
701.228,1874.35
701.56,1808.92
701.893,1802.79
702.225,1762.35
702.557,1738.82
702.89,1745.69
703.222,1710.4
703.554,1695.45
703.886,1735.15
704.218,1680.99
704.55,1669.71
704.882,1700.1
705.214,1724.61
705.546,1676.33
705.878,1650.35
706.209,1640.8
706.541,1629.52
706.873,1614.33
707.204,1626.58
707.536,1560.17
707.867,1581.49
708.199,1583.2
708.53,1568.5
708.861,1531.25
709.193,1532.47
709.524,1549.14
709.855,1491.55
710.186,1508.95
710.517,1490.57
710.848,1469.24
711.179,1485.42
711.51,1453.8
711.841,1498.16
712.172,1468.26
712.502,1432.73
712.833,1443.76
713.164,1370.23
713.494,1378.81
713.825,1402.58
714.155,1406.02
714.486,1403.81
714.816,1379.55
715.146,1341.56
715.476,1385.92
715.807,1334.7
716.137,1340.83
716.467,1306.03
716.797,1369.74
717.127,1337.15
717.457,1321.95
717.787,1280.05
718.117,1286.42
718.446,1266.08
718.776,1288.63
719.106,1304.8
719.435,1294.51
719.765,1264.12
720.095,1252.35
720.424,1267.55
720.753,1223.44
721.083,1165.6
721.412,1246.47
721.741,1193.05
722.07,1177.85
722.4,1191.33
722.729,1161.43
723.058,1134.96
723.387,1189.37
723.716,1140.6
724.044,1169.76
724.373,1142.32
724.702,1143.3
725.031,1176.87
725.359,1107.52
725.688,1123.45
726.017,1114.38
726.345,1090.85
726.674,1088.65
727.002,1103.35
727.33,1073.94
727.659,1076.39
727.987,1047.47
728.315,1047.47
728.643,1089.63
728.971,1042.57
729.299,1018.06
729.627,1001.64
729.955,1013.9
730.283,1011.94
730.611,988.17
730.938,1032.03
731.266,998.95
731.594,994.05
731.921,1016.35
732.249,964.88
732.576,960.23
732.904,994.78
733.231,944.3
733.558,946.5
733.886,980.81
734.213,976.65
734.54,966.84
734.867,931.8
735.194,908.76
735.521,940.62
735.848,916.6
736.175,923.96
736.502,897
736.829,915.87
737.155,901.65
737.482,883.03
737.809,853.62
738.135,879.35
738.462,874.21
738.788,862.69
739.115,881.31
739.441,898.71
739.767,839.16
740.093,856.32
740.42,868.57
740.746,816.61
741.072,863.91
741.398,844.06
741.724,797.25
742.05,833.77
742.376,829.11
742.701,772.75
743.027,846.51
743.353,803.87
743.679,831.32
744.004,783.53
744.33,810.49
744.655,803.14
744.981,809.75
745.306,824.21
745.631,753.39
745.957,752.65
746.282,770.54
746.607,738.68
746.932,758.29
747.257,765.15
747.582,743.83
747.907,722.51
748.232,750.2
748.557,734.27
748.881,741.87
749.206,701.18
749.531,721.28
749.855,712.7
750.18,704.86
750.505,679.13
750.829,723.73
751.153,690.89
751.478,700.2
751.802,644.33
752.126,657.07
752.45,673
752.775,660.01
753.099,644.82
753.423,685.5
753.747,656.83
754.07,652.66
754.394,629.38
754.718,661.97
755.042,650.94
755.366,629.13
755.689,626.19
756.013,616.39
756.336,640.65
756.66,605.61
756.983,616.88
757.307,627.17
757.63,611.73
757.953,541.89
758.276,581.1
758.599,581.34
758.922,539.19
759.245,591.64
759.568,555.61
759.891,556.84
760.214,586.25
760.537,544.83
760.86,567.87
761.183,541.15
761.505,563.94
761.828,581.1
762.15,545.32
762.473,550.71
762.795,563.21
763.118,555.12
763.44,529.63
763.762,500.47
764.084,526.45
764.407,538.95
764.729,545.32
765.051,530.37
765.373,520.08
765.695,542.13
766.016,506.6
766.338,482.58
766.66,495.81
766.982,475.96
767.303,506.35
767.625,457.83
767.947,460.52
768.268,465.67
768.589,480.37
768.911,458.32
769.232,465.42
769.553,479.39
769.875,427.19
770.196,430.87
770.517,449
770.838,452.44
771.159,433.07
771.48,441.65
771.801,410.53
772.122,402.44
772.442,417.39
772.763,422.29
773.084,396.8
773.404,385.53
773.725,419.35
774.045,390.43
774.366,350.24
774.686,395.82
775.007,403.18
775.327,420.58
775.647,420.09
775.967,394.84
776.287,382.1
776.607,394.6
776.927,365.43
777.247,390.43
777.567,381.36
777.887,383.57
778.207,353.67
778.527,361.76
778.846,363.96
779.166,375.24
779.485,361.02
779.805,359.31
780.124,369.85
780.444,359.31
780.763,331.86
781.082,337.25
781.402,336.76
781.721,384.31
782.04,326.47
782.359,326.22
782.678,346.32
782.997,345.58
783.316,326.71
783.635,328.43
783.953,326.96
784.272,368.13
784.591,338.23
784.909,294.61
785.228,295.59
785.546,351.47
785.865,302.45
786.183,308.33
786.501,315.44
786.82,324.26
787.138,330.88
787.456,316.42
787.774,304.41
788.092,280.64
788.41,283.34
788.728,293.63
789.046,312.74
789.364,312.01
789.682,297.79
789.999,280.39
790.317,278.92
790.635,265.44
790.952,275.98
791.27,267.41
791.587,289.71
791.905,292.65
792.222,282.35
792.539,256.38
792.856,280.39
793.173,255.4
793.491,252.7
793.808,269.86
794.125,244.12
794.442,275
794.758,236.04
795.075,225.25
795.392,224.76
795.709,215.69
796.025,221.82
796.342,221.82
796.658,230.15
796.975,248.04
797.291,222.31
797.608,242.16
797.924,214.71
798.24,222.31
798.557,227.7
798.873,231.87
799.189,212.02
799.505,214.71
799.821,206.38
800.137,194.62
800.453,209.08
800.768,200.75
801.084,186.29
801.4,193.88
801.715,220.6
802.031,177.22
802.347,213
802.662,223.29
802.977,202.46
803.293,190.21
803.608,165.95
803.923,180.65
804.238,191.19
804.554,166.93
804.869,164.72
805.184,174.52
805.499,163
805.814,165.7
806.128,157.37
806.443,172.81
806.758,131.88
807.073,187.51
807.387,194.37
807.702,176.24
808.016,167.17
808.331,164.23
808.645,156.14
808.959,177.22
809.274,145.11
809.588,125.26
809.902,146.83
810.216,174.28
810.53,178.93
810.844,139.48
811.158,148.05
811.472,142.17
811.786,156.14
812.1,174.03
812.413,131.88
812.727,142.17
813.041,151
813.354,130.41
813.668,145.6
813.981,141.93
814.294,108.84
814.608,141.93
814.921,129.67
815.234,135.56
815.547,132.86
815.86,163.98
816.173,142.17
816.486,131.88
816.799,88.26
817.112,153.2
817.425,148.3
817.738,132.86
818.05,143.4
818.363,133.35
818.676,103.94
818.988,132.37
819.301,86.3
819.613,142.42
819.925,101.98
820.238,113.74
820.55,149.04
820.862,125.75
821.174,101.98
821.486,90.95
821.798,83.85
822.11,92.91
822.422,111.05
822.734,87.28
823.046,106.15
823.357,101
823.669,120.36
823.981,98.3
824.292,107.13
824.604,136.78
824.915,88.26
825.226,86.54
825.538,126.98
825.849,42.43
826.16,59.83
826.471,88.5
826.782,76.98
827.093,80.9
827.404,58.11
827.715,83.6
828.026,75.51
828.337,100.27
828.648,108.6
828.958,115.95
829.269,105.9
829.58,41.69
829.89,111.78
830.2,96.83
830.511,84.58
830.821,82.87
831.131,106.15
831.442,65.96
831.752,91.93
832.062,53.46
832.372,50.52
832.682,55.66
832.992,85.56
833.302,88.5
833.612,51.25
833.921,67.18
834.231,83.85
834.541,84.09
834.85,43.65
835.16,84.34
835.469,97.08
835.779,78.21
836.088,63.01
836.397,52.23
836.707,63.99
837.016,101.25
837.325,91.93
837.634,61.79
837.943,70.61
838.252,77.47
838.561,74.29
838.87,59.58
839.178,66.45
839.487,54.93
839.796,47.33
840.104,81.64
840.413,37.77
840.721,53.21
841.03,74.29
841.338,85.81
841.647,71.1
841.955,87.77
842.263,69.39
842.571,42.43
842.879,49.78
843.187,82.13
843.495,60.32
843.803,87.28
844.111,71.59
844.419,59.09
844.726,74.29
845.034,38.51
845.342,45.86
845.649,31.15
845.957,92.42
846.264,53.21
846.572,63.75
846.879,26.01
847.186,48.06
847.493,48.06
847.801,46.59
848.108,69.63
848.415,40.96
848.722,49.29
849.029,62.52
849.335,44.88
849.642,63.99
849.949,110.8
850.256,45.86
850.562,67.92
850.869,61.54
851.175,30.66
851.482,36.55
851.788,-17.37
852.095,51.99
852.401,61.3
852.707,16.21
853.013,63.26
853.319,17.43
853.625,50.76
853.931,36.55
854.237,37.77
854.543,48.06
854.849,40.71
855.155,64.98
855.46,58.11
855.766,28.7
856.072,78.45
856.377,71.59
856.683,75.76
856.988,53.95
857.293,68.16
857.599,21.35
857.904,40.71
858.209,40.71
858.514,73.55
858.819,20.37
859.124,57.62
859.429,47.82
859.734,36.3
860.039,50.27
860.343,-2.67
860.648,7.63
860.953,38.02
861.257,40.47
861.562,23.8
861.866,63.5
862.171,0.28
862.475,7.14
862.779,16.94
863.084,35.08
863.388,23.07
863.692,37.28
863.996,49.54
864.3,34.34
864.604,36.3
864.908,30.42
865.211,70.86
865.515,10.57
865.819,46.84
866.123,32.14
866.426,37.04
866.73,-0.46
867.033,24.05
867.336,44.39
867.64,42.67
867.943,47.08
868.246,45.61
868.549,18.66
868.853,19.64
869.156,27.48
869.459,33.85
869.762,30.42
870.064,40.47
870.367,36.06
870.67,39.49
870.973,42.18
871.275,54.93
871.578,13.75
871.88,37.53
872.183,40.47
872.485,12.04
872.787,11.3
873.09,52.48
873.392,12.04
873.694,5.18
873.996,15.23
874.298,-8.3
874.6,2.48
874.902,22.33
875.204,-4.87
875.506,32.87
875.808,42.18
876.109,15.72
876.411,58.36
876.712,20.37
877.014,2.73
877.315,45.86
877.617,22.33
877.918,19.88
878.219,22.82
878.521,46.84
878.822,50.76
879.123,27.23
879.424,27.72
879.725,46.35
880.026,-1.44
880.326,44.39
880.627,38.75
880.928,17.92
881.229,40.47
881.529,-4.14
881.83,33.36
882.13,56.89
882.431,30.66
882.731,-7.32
883.031,54.44
883.332,8.12
883.632,31.65
883.932,38.51
884.232,9.34
884.532,9.34
884.832,36.3
885.132,9.83
885.432,-21.54
885.732,7.87
886.031,1.99
886.331,-5.36
886.63,16.45
886.93,43.16
887.229,40.96
887.529,18.41
887.828,9.83
888.128,25.27
888.427,6.16
888.726,18.41
889.025,-14.18
889.324,-23.5
889.623,-2.42
889.922,9.83
890.221,13.02
890.52,48.8
890.818,-3.16
891.117,36.55
891.416,6.65
891.714,61.3
892.013,7.38
892.311,17.68
892.61,20.13
892.908,4.93
893.206,-24.23
893.505,1.99
893.803,11.06
894.101,-2.91
894.399,-3.89
894.697,5.42
894.995,-0.46
895.293,-23.74
895.59,-11.98
895.888,29.19
896.186,2.73
896.483,32.87
896.781,-4.14
897.078,-15.9
897.376,-3.65
897.673,17.19
897.971,6.4
898.268,-4.14
898.565,20.37
898.862,21.84
899.159,26.01
899.456,27.48
899.753,44.88
900.05,-16.63
900.347,31.15
900.644,34.1
900.94,-4.38
901.237,13.51
901.534,19.15
901.83,26.25
902.126,21.35
902.423,-22.27
902.719,43.65
903.016,63.01
903.312,-21.54
903.608,9.83
903.904,18.9
904.2,25.27
904.496,-4.63
904.792,5.91
905.088,26.74
905.384,28.21
905.679,-16.88
905.975,7.14
906.271,3.46
906.566,3.95
906.862,24.78
907.157,-20.56
907.452,16.21
907.748,19.15
908.043,16.45
908.338,-0.21
908.633,-33.79
908.928,15.47
909.223,21.84
909.518,41.2
909.813,42.92
910.108,22.58
910.403,14.74
910.698,15.47
910.992,32.14
911.287,-42.37
911.581,8.36
911.876,0.52
912.17,27.23
912.465,34.34
912.759,-13.45
913.053,-26.19
913.347,1.01
913.641,21.6
913.935,1.99
914.229,22.82
914.523,39.98
914.817,24.78
915.111,30.42
915.405,21.6
915.698,-6.83
915.992,22.58
916.285,-0.95
916.579,10.08
916.872,25.52
917.166,-9.28
917.459,27.72
917.752,6.16
918.045,-9.53
918.338,-1.68
918.632,25.03
918.925,-17.61
919.217,-19.82
919.51,-29.87
919.803,62.77
920.096,5.18
920.389,-4.63
920.681,7.63
920.974,3.22
921.266,10.08
921.559,-4.14
921.851,47.82
922.143,34.59
922.436,2.48
922.728,11.79
923.02,27.72
923.312,21.11
923.604,2.48
923.896,12.77
924.188,14
924.48,-3.16
924.772,-21.54
925.063,10.57
925.355,-23.25
925.647,-43.1
925.938,-27.91
926.23,9.83
926.521,1.5
926.812,8.61
927.104,14
927.395,-12.22
927.686,2.48
927.977,4.44
928.268,24.05
928.559,-17.12
928.85,-12.96
929.141,-16.88
929.432,11.3
929.722,15.72
930.013,0.52
930.304,-4.14
930.594,36.06
930.885,32.63
931.175,-37.22
931.465,-21.54
931.756,36.3
932.046,39.73
932.336,-10.51
932.626,5.18
932.916,5.42
933.206,-6.59
933.496,-6.59
933.786,26.5
934.076,0.28
934.365,10.08
934.655,50.52
934.945,-25.46
935.234,13.51
935.524,6.65
935.813,-4.87
936.103,7.14
936.392,16.45
936.681,33.12
936.97,19.39
937.259,17.92
937.548,21.35
937.837,7.14
938.126,3.71
938.415,43.65
938.704,-28.64
938.993,15.96
939.281,23.56
939.57,-8.3
939.859,6.89
940.147,7.87
940.436,-19.58
940.724,35.32
941.012,-25.95
941.301,27.72
941.589,29.93
941.877,1.26
942.165,-11.24
942.453,26.99
942.741,-33.3
943.029,-1.19
943.316,10.81
943.604,29.44
943.892,16.7
944.18,25.03
944.467,16.7
944.755,22.33
945.042,-12.22
945.329,-22.03
945.617,6.89
945.904,-1.19
946.191,-0.7
946.478,-7.32
946.765,4.93
947.052,42.67
947.339,20.13
947.626,3.71
947.913,8.36
948.2,5.18
948.486,-5.12
948.773,-2.42
949.06,-12.47
949.346,4.69
949.633,-14.67
949.919,21.11
950.205,-11.98
950.492,13.26
950.778,25.03
951.064,0.77
951.35,-6.34
951.636,1.01
951.922,2.24
952.208,39.49
952.494,-9.04
952.779,19.15
953.065,11.06
953.351,-2.18
953.636,9.34
953.922,12.04
954.207,-12.22
954.492,5.67
954.778,2.48
955.063,-0.95
955.348,1.5
955.633,2.97
955.918,-30.85
956.203,-15.41
956.488,-9.28
956.773,18.66
957.058,20.62
957.343,17.19
957.627,7.38
957.912,-8.79
958.197,7.87
958.481,21.84
958.766,2.24
959.05,17.43
959.334,-7.32
959.619,-1.44
959.903,5.91
960.187,14.74
960.471,-41.39
960.755,9.59
961.039,15.47
961.323,-3.89
961.606,14
961.89,-8.79
962.174,-29.87
962.457,8.61
962.741,9.34
963.025,12.28
963.308,34.59
963.591,-1.44
963.875,-2.91
964.158,-7.32
964.441,-23.99
964.724,-15.9
965.007,-0.7
965.29,17.43
965.573,-22.27
965.856,-2.18
966.139,20.37
966.421,7.87
966.704,18.41
966.987,-15.9
967.269,-47.76
967.552,-4.14
967.834,-13.2
968.117,5.67
968.399,10.81
968.681,-4.87
968.963,-14.67
969.245,-11.24
969.527,12.28
969.809,-14.18
970.091,1.5
970.373,-22.76
970.655,-5.36
970.937,-8.55
971.218,-7.57
971.5,10.57
971.781,7.87
972.063,21.11
972.344,-1.44
972.626,7.63
972.907,16.7
973.188,-10.26
973.469,32.14
973.75,26.01
974.031,1.75
974.312,42.67
974.593,-17.86
974.874,11.79
975.155,9.1
975.435,-19.58
975.716,2.48
975.997,0.03
976.277,59.83
976.558,17.43
976.838,-16.14
977.118,-0.21
977.399,13.75
977.679,28.7
977.959,-4.63
978.239,-11
978.519,0.77
978.799,-7.08
979.079,-0.95
979.359,-1.93
979.638,2.48
979.918,16.21
980.198,-8.06
980.477,6.65
980.757,16.45
981.036,-25.7
981.315,13.51
981.595,38.51
981.874,10.32
982.153,-18.84
982.432,16.21
982.711,24.29
982.99,3.46
983.269,-14.92
983.548,-27.17
983.827,-1.19
984.105,31.4
984.384,0.77
984.663,7.38
984.941,2.48
985.22,0.77
985.498,8.12
985.776,21.84
986.055,-25.46
986.333,19.88
986.611,25.76
986.889,-27.66
987.167,-6.83
987.445,-1.93
987.723,9.34
988.001,-13.94
988.279,-3.89
988.556,18.41
988.834,-1.19
989.112,-13.45
989.389,-9.53
989.666,-12.71
989.944,-17.37
990.221,13.51
990.498,8.36
990.776,-5.61
991.053,10.81
991.33,-12.71
991.607,-22.27
991.884,13.02
992.161,18.41
992.437,21.11
992.714,9.83
992.991,22.82
993.267,-4.14
993.544,-2.67
993.82,-2.18
994.097,3.71
994.373,9.34
994.649,4.2
994.926,11.79
995.202,-11.49
995.478,1.5
995.754,-3.16
996.03,8.36
996.306,-4.87
996.582,-49.47
996.857,20.13
997.133,-14.92
997.409,49.05
997.684,-7.81
997.96,6.16
998.235,29.68
998.511,-46.29
998.786,22.33
999.061,9.34
999.336,13.51
999.611,0.28
999.886,29.44
1000.161,7.38
1000.436,-1.19
1000.711,21.11
1000.986,-14.43
1001.261,-34.52
1001.535,7.63
1001.81,25.27
1002.085,13.02
1002.359,15.72
1002.633,-46.78
1002.908,2.97
1003.182,15.47
1003.456,-8.3
1003.73,13.26
1004.004,0.03
1004.278,3.22
1004.552,-7.57
1004.826,-15.16
1005.1,-9.04
1005.374,6.89
1005.648,2.97
1005.921,27.48
1006.195,-5.61
1006.468,-2.42
1006.742,4.93
1007.015,-13.45
1007.288,-21.54
1007.562,-12.96
1007.835,14.74
1008.108,8.36
1008.381,-31.58
1008.654,6.4
1008.927,38.02
1009.2,-4.14
1009.472,29.19
1009.745,-10.75
1010.018,16.45
1010.29,24.78
1010.563,8.12
1010.835,2.97
1011.108,-13.2
1011.38,1.26
1011.652,-5.85
1011.924,0.28
1012.197,-30.11
1012.469,-0.46
1012.741,26.01
1013.013,9.34
1013.284,-23.99
1013.556,19.88
1013.828,-17.37
1014.1,-9.28
1014.371,26.01
1014.643,-6.83
1014.914,-8.55
1015.186,-8.55
1015.457,-8.55
